File: Input_data/[1] JJ1-53 1st SC total meas_12_CV.mpt
EC-Lab ASCII FILE
Nb header lines : 56

Cyclic Voltammetry

Run on channel : 1 (SN 31418)
User :
CE vs. WE compliance from -10 V to 10 V
Electrode connection : standard
Ewe ctrl range : min = -10.00 V, max = 10.00 V
Safety Limits :
	Do not start on E overload
Acquisition started on : 01/25/2023 15:21:28
Technique started on : 01/25/2023 17:58:34
Saved on :
	File : [1] JJ1-53 1st SC total meas_12_CV.mpr
	Directory : C:\Users\Potentiostat\Documents\EC-Lab\Data\Supercapacitor until 2021 02\(230125) SC JJ1-53 54 lower CB better viscosity\
	Host : 127.0.0.1
Device : SP-150 (SN 1275)
Address : USB
EC-Lab for windows v11.16 (software)
Internet server v11.16 (firmware)
Command interpretor v11.16 (firmware)
Electrode material : Au/Pd
Initial state :
Electrolyte : NaCl (0.2M)
Comments : Fe(CN)63-/Fe(CN)64- 5.10-3 M
Reference electrode : SCE Saturated Calomel Electrode (0.241 V)
Electrode surface area : 0.001 cm²
Characteristic mass : 0.001 g
Equivalent Weight : 0.000 g/eq.
Density : 0.000 g/cm3
Cycle Definition : Charge/Discharge alternance
Ei (V)              0.000
vs.                 Ref
dE/dt               100.000
dE/dt unit          mV/s
E1 (V)              0.800
vs.                 Ref
Step percent        50
N                   10
E range min (V)     -10.000
E range max (V)     10.000
I Range             Auto
I Range min         Unset
I Range max         Unset
I Range init        Unset
Bandwidth           7
E2 (V)              0.000
vs.                 Ref
nc cycles           5
Reverse Scan        0
Ef (V)              0.000
vs.                 Eoc

mode	ox/red	error	control changes	counter inc.	time/s	control/V	Ewe/V	<I>/mA	cycle number	(Q-Qo)/C	P/W
2	1	0	0	0	9426.93	0.00906223	0.00861089	-3.2245	1	0.0000000E+000	-2.77658e-05
2	1	0	1	0	9427.6	0.0754237	0.0750461	-1.38382	1	-0.00143341	-0.00010385
2	1	0	0	0	9428.31	0.146554	0.146144	-0.191586	1	-0.00196927	-2.79991e-05
2	1	0	1	0	9428.99	0.214305	0.213914	0.67777	1	-0.0017906	0.000144984
2	1	0	1	0	9429.7	0.285134	0.284662	1.41323	1	-0.00103963	0.000402293
2	1	0	0	0	9430.37	0.352884	0.352352	2.00297	1	0.000124609	0.000705751
2	1	0	1	0	9431.05	0.420622	0.420125	2.52052	1	0.00166213	0.00105893
2	1	0	1	0	9431.73	0.488376	0.48788	2.99718	1	0.0035352	0.00146226
2	1	0	0	0	9432.41	0.556125	0.555623	3.45541	1	0.00572338	0.0019199
2	1	0	1	0	9433.08	0.623864	0.623282	3.91274	1	0.00822072	0.00243874
2	1	0	1	0	9433.76	0.691613	0.691112	4.38519	1	0.0110331	0.00303066
2	1	0	0	0	9434.44	0.759362	0.758895	4.88009	1	0.0141724	0.00370348
2	0	0	0	0	9435.05	0.77999	0.779516	4.40577	1	0.0171777	0.00343437
2	0	0	1	0	9435.72	0.712252	0.711841	2.47788	1	0.0194683	0.00176386
2	0	0	1	0	9436.4	0.644502	0.644026	1.02742	1	0.0206328	0.000661688
2	0	0	0	0	9437.11	0.573363	0.572928	-0.184482	1	0.0209148	-0.000105695
2	0	0	1	0	9437.82	0.502541	0.502038	-1.16369	1	0.0204241	-0.000584215
2	0	0	0	0	9438.5	0.434792	0.434288	-1.92846	1	0.0193658	-0.000837505
2	0	0	0	0	9439.17	0.367042	0.366541	-2.55675	1	0.0178371	-0.000937154
2	0	0	1	0	9439.85	0.299293	0.298779	-3.06938	1	0.0159229	-0.000917068
2	0	0	0	0	9440.53	0.231552	0.231078	-3.48716	1	0.0136958	-0.000805804
2	0	0	0	0	9441.21	0.163801	0.16333	-3.83939	1	0.011209	-0.000627089
2	0	0	1	0	9441.88	0.0960513	0.0955537	-4.15053	1	0.00849847	-0.000396599
2	0	0	0	0	9442.56	0.028313	0.0278472	-4.4337	1	0.0055882	-0.000123466
2	1	0	0	1	9443.2	0.0357036	0.035292	-3.29214	2	0.00294591	-0.000116186
2	1	0	1	1	9443.88	0.103444	0.102983	-1.66334	2	0.00130397	-0.000171296
2	1	0	1	1	9444.57	0.172733	0.172336	-0.447186	2	0.000595211	-7.7066e-05
2	1	0	0	1	9445.26	0.242025	0.24163	0.498167	2	0.000626967	0.000120372
2	1	0	1	1	9445.97	0.312842	0.312358	1.27875	2	0.00126718	0.00039943
2	1	0	1	1	9446.65	0.380596	0.380058	1.9056	2	0.00235348	0.000724239
2	1	0	0	1	9447.33	0.448346	0.447878	2.45573	2	0.00383656	0.00109987
2	1	0	1	1	9448	0.516084	0.515551	2.96111	2	0.00567512	0.0015266
2	1	0	1	1	9448.68	0.583833	0.583317	3.44537	2	0.00784793	0.00200974
2	1	0	0	1	9449.36	0.651583	0.651105	3.92974	2	0.0103482	0.00255868
2	1	0	0	1	9450.04	0.719334	0.718827	4.42885	2	0.0131808	0.00318358
2	1	0	1	1	9450.71	0.787075	0.786572	4.95333	2	0.0163586	0.00389615
2	0	0	1	1	9451.32	0.752282	0.751827	3.41176	2	0.018998	0.00256506
2	0	0	0	1	9452	0.684532	0.684055	1.73244	2	0.0207104	0.00118508
2	0	0	0	1	9452.69	0.615089	0.61461	0.397508	2	0.0214292	0.000244312
2	0	0	0	1	9453.39	0.545651	0.545211	-0.676464	2	0.0213183	-0.000368816
2	0	0	0	1	9454.1	0.474822	0.474322	-1.5686	2	0.0205102	-0.000744021
2	0	0	1	1	9454.77	0.407072	0.406575	-2.2663	2	0.0192007	-0.000921422
2	0	0	0	1	9455.45	0.339334	0.338778	-2.83779	2	0.017463	-0.00096138
2	0	0	0	1	9456.13	0.27158	0.271079	-3.30015	2	0.0153763	-0.000894601
2	0	0	1	1	9456.81	0.203831	0.203374	-3.68077	2	0.0130057	-0.000748572
2	0	0	0	1	9457.48	0.136093	0.135626	-4.00864	2	0.010397	-0.000543675
2	0	0	0	1	9458.16	0.0683432	0.067821	-4.30185	2	0.0075785	-0.000291756
2	0	0	1	1	9458.83	0.00121371	0.000757386	-4.57019	2	0.00459787	-3.4614e-06
2	1	0	1	0	9459.48	0.0634162	0.0629684	-2.57833	3	0.00234926	-0.000162353
2	1	0	0	0	9460.15	0.131166	0.13075	-1.15797	3	0.00111137	-0.000151405
2	1	0	1	0	9460.86	0.202293	0.201925	-0.0365722	3	0.000705675	-7.38486e-06
2	1	0	0	0	9461.54	0.270043	0.269619	0.80751	3	0.000979119	0.00021772
2	1	0	1	0	9462.25	0.340865	0.340337	1.53341	3	0.00181796	0.000521875
2	1	0	1	0	9462.93	0.408614	0.408082	2.1256	3	0.00306428	0.00086742
2	1	0	0	0	9463.61	0.476364	0.475858	2.65454	3	0.00468826	0.00126318
2	1	0	0	0	9464.28	0.544113	0.543601	3.14814	3	0.00665737	0.00171133
2	1	0	1	0	9464.96	0.611854	0.611358	3.63087	3	0.00895592	0.00221976
2	1	0	0	0	9465.64	0.679605	0.679118	4.1199	3	0.011583	0.0027979
2	1	0	0	0	9466.32	0.747355	0.746853	4.62784	3	0.0145469	0.00345632
2	0	0	0	0	9466.92	0.792312	0.791805	4.71149	3	0.0174707	0.00373058
2	0	0	0	0	9467.6	0.724563	0.724012	2.65298	3	0.0199142	0.00192079
2	0	0	1	0	9468.27	0.656813	0.656304	1.1503	3	0.0211782	0.000754947
2	0	0	0	0	9468.99	0.585681	0.58522	-0.0954197	3	0.021535	-5.58415e-05
2	0	0	1	0	9469.69	0.514852	0.514353	-1.0972	3	0.0210987	-0.000564346
2	0	0	0	0	9470.37	0.447114	0.446659	-1.87995	3	0.020079	-0.000839698
2	0	0	0	0	9471.05	0.379362	0.378852	-2.52275	3	0.0185781	-0.00095575
2	0	0	1	0	9471.73	0.311611	0.311108	-3.04522	3	0.0166837	-0.000947394
2	0	0	0	0	9472.4	0.243872	0.243414	-3.4687	3	0.0144706	-0.000844332
2	0	0	0	0	9473.08	0.176123	0.175654	-3.8238	3	0.0119953	-0.000671665
2	0	0	1	0	9473.76	0.108373	0.107882	-4.1344	3	0.00929572	-0.000446027
2	0	0	1	0	9474.44	0.0406218	0.0401751	-4.41554	3	0.00639627	-0.000177395
2	1	0	0	1	9475.07	0.0233859	0.0228553	-3.69736	4	0.00361926	-8.45042e-05
2	1	0	1	1	9475.75	0.0911243	0.0906757	-1.94304	4	0.00175157	-0.000176186
2	1	0	1	1	9476.43	0.158874	0.158455	-0.685479	4	0.000883397	-0.000108617
2	1	0	0	1	9477.14	0.230013	0.229628	0.329607	4	0.000773236	7.56872e-05
2	1	0	1	1	9477.85	0.300835	0.300344	1.13951	4	0.00130506	0.000342244
2	1	0	0	1	9478.53	0.368584	0.368065	1.78476	4	0.00230362	0.000656908
2	1	0	0	1	9479.2	0.436334	0.435858	2.34664	4	0.00370883	0.0010228
2	1	0	1	1	9479.88	0.504083	0.503616	2.85708	4	0.00547563	0.00143887
2	1	0	0	1	9480.56	0.571826	0.571291	3.34356	4	0.00757877	0.00191015
2	1	0	0	1	9481.24	0.639575	0.639135	3.82678	4	0.0100095	0.00244583
2	1	0	1	1	9481.91	0.707325	0.706873	4.32158	4	0.0127706	0.00305481
2	1	0	0	1	9482.59	0.775063	0.774541	4.83975	4	0.015874	0.00374858
2	0	0	1	1	9483.2	0.764593	0.764024	3.76056	4	0.0186508	0.00287315
2	0	0	0	1	9483.87	0.69685	0.69635	1.98764	4	0.0205642	0.00138409
2	0	0	0	1	9484.55	0.629101	0.628594	0.628282	4	0.02143	0.000394935
2	0	0	0	1	9485.26	0.557973	0.557547	-0.514813	4	0.0214537	-0.000287032
2	0	0	0	1	9485.97	0.487144	0.486673	-1.43935	4	0.0207484	-0.000700493
2	0	0	1	1	9486.65	0.41939	0.418839	-2.16135	4	0.0195184	-0.000905257
2	0	0	0	1	9487.32	0.351652	0.351148	-2.75134	4	0.0178455	-0.000966128
2	0	0	0	1	9488	0.283902	0.283445	-3.22955	4	0.0158114	-0.0009154
2	0	0	1	1	9488.68	0.216153	0.215649	-3.62083	4	0.0134848	-0.000780829
2	0	0	1	1	9489.36	0.148404	0.147878	-3.95486	4	0.0109142	-0.000584837
2	0	0	0	1	9490.03	0.0806609	0.0802313	-4.25055	4	0.00813146	-0.000341027
2	0	0	1	1	9490.71	0.0129115	0.0124719	-4.52389	4	0.00515591	-5.64215e-05
2	1	0	1	0	9491.35	0.051094	0.0506297	-2.89063	5	0.00271169	-0.000146352
2	1	0	0	0	9492.03	0.118843	0.118388	-1.38361	5	0.00129466	-0.000163803
2	1	0	1	0	9492.74	0.189976	0.18959	-0.209653	5	0.000748884	-3.9748e-05
2	1	0	0	0	9493.42	0.257725	0.257313	0.667899	5	0.000917244	0.000171859
2	1	0	0	0	9494.12	0.328554	0.328069	1.41718	5	0.00166585	0.000464932
2	1	0	1	0	9494.8	0.396303	0.395778	2.02349	5	0.00283826	0.000800854
2	1	0	0	0	9495.48	0.464044	0.463496	2.55919	5	0.00439554	0.00118618
2	1	0	0	0	9496.16	0.531795	0.531292	3.05691	5	0.00630199	0.00162411
2	1	0	1	0	9496.83	0.599545	0.599031	3.53974	5	0.00853911	0.00212041
2	1	0	0	0	9497.51	0.667283	0.666794	4.02524	5	0.0111028	0.00268401
2	1	0	0	0	9498.19	0.735033	0.734513	4.52796	5	0.0140011	0.00332584
2	1	0	0	0	9498.84	0.799857	0.799449	5.03698	5	0.0171015	0.00402681
2	0	0	0	0	9499.47	0.73688	0.736391	2.96643	5	0.0195806	0.00218445
2	0	0	1	0	9500.15	0.669131	0.668659	1.39139	5	0.0210304	0.000930363
2	0	0	0	0	9500.86	0.598003	0.597593	0.0963737	5	0.0215399	5.75923e-05
2	0	0	1	0	9501.54	0.530254	0.529808	-0.901455	5	0.0212536	-0.000477598
2	0	0	0	0	9502.25	0.459431	0.458936	-1.75389	5	0.0203012	-0.000804923
2	0	0	0	0	9502.92	0.391682	0.3912	-2.41814	5	0.0188784	-0.000945978
2	0	0	1	0	9503.6	0.323933	0.323448	-2.96038	5	0.0170476	-0.000957528
2	0	0	1	0	9504.28	0.256183	0.255719	-3.39854	5	0.0148866	-0.000869073
2	0	0	0	0	9504.96	0.188441	0.187948	-3.76218	5	0.0124561	-0.000707096
2	0	0	1	0	9505.63	0.120691	0.120191	-4.07767	5	0.00979618	-0.0004901
2	0	0	1	0	9506.31	0.0529417	0.052524	-4.36292	5	0.0069334	-0.000229158
2	1	0	0	1	9506.95	0.0110638	0.0106054	-4.11513	6	0.00409749	-4.36428e-05
2	1	0	0	1	9507.63	0.0788133	0.0783926	-2.21054	6	0.00200734	-0.00017329
2	1	0	1	1	9508.3	0.146554	0.146066	-0.886379	6	0.000983137	-0.00012947
2	1	0	0	1	9509.01	0.217695	0.217258	0.174204	6	0.00074788	3.78471e-05
2	1	0	1	1	9509.69	0.285444	0.285075	0.979895	6	0.00115037	0.000279344
2	1	0	0	1	9510.4	0.356262	0.355751	1.67694	6	0.00210002	0.000596575
2	1	0	0	1	9511.08	0.424016	0.423484	2.24948	6	0.00343634	0.000952621
2	1	0	1	1	9511.76	0.491765	0.491219	2.76638	6	0.00514014	0.0013589
2	1	0	0	1	9512.43	0.559504	0.558991	3.25496	6	0.00718281	0.00181949
2	1	0	0	1	9513.11	0.627253	0.626748	3.73705	6	0.00955305	0.00234219
2	1	0	1	1	9513.79	0.695002	0.694471	4.22683	6	0.0122521	0.00293541
2	1	0	0	1	9514.46	0.762745	0.762271	4.74106	6	0.0152901	0.00361397
2	0	0	1	1	9515.07	0.776911	0.776396	4.15154	6	0.0181693	0.00322324
2	0	0	0	1	9515.75	0.709172	0.708671	2.27007	6	0.0203055	0.00160873
2	0	0	0	1	9516.42	0.641423	0.640911	0.850191	6	0.0213401	0.000544897
2	0	0	1	1	9517.14	0.570282	0.569841	-0.337531	6	0.0215052	-0.000192339
2	0	0	0	1	9517.84	0.499462	0.498959	-1.29552	6	0.0209137	-0.000646413
2	0	0	1	1	9518.52	0.431712	0.431202	-2.04224	6	0.0197723	-0.000880618
2	0	0	1	1	9519.2	0.363963	0.363458	-2.65478	6	0.0181719	-0.000964901
2	0	0	0	1	9519.88	0.296222	0.295776	-3.15031	6	0.0161973	-0.000931788
2	0	0	1	1	9520.55	0.228471	0.227979	-3.5542	6	0.0139199	-0.000810283
2	0	0	1	1	9521.23	0.160721	0.160271	-3.89468	6	0.0113919	-0.000624205
2	0	0	0	1	9521.91	0.0929719	0.092542	-4.19611	6	0.00864711	-0.000388316
2	0	0	1	1	9522.59	0.0252336	0.0247354	-4.473	6	0.00570799	-0.000110642
2	0	0	1	1	9522.84	-0.000131913	-0.000383284	-4.57072	6	0.00457283	1.75188e-06