File: Input_data/[1] JJ1-53 1st SC total meas_07_CV.mpt
EC-Lab ASCII FILE
Nb header lines : 56

Cyclic Voltammetry

Run on channel : 1 (SN 31418)
User :
CE vs. WE compliance from -10 V to 10 V
Electrode connection : standard
Ewe ctrl range : min = -10.00 V, max = 10.00 V
Safety Limits :
	Do not start on E overload
Acquisition started on : 01/25/2023 15:21:28
Technique started on : 01/25/2023 16:19:24
Saved on :
	File : [1] JJ1-53 1st SC total meas_07_CV.mpr
	Directory : C:\Users\Potentiostat\Documents\EC-Lab\Data\Supercapacitor until 2021 02\(230125) SC JJ1-53 54 lower CB better viscosity\
	Host : 127.0.0.1
Device : SP-150 (SN 1275)
Address : USB
EC-Lab for windows v11.16 (software)
Internet server v11.16 (firmware)
Command interpretor v11.16 (firmware)
Electrode material : Au/Pd
Initial state :
Electrolyte : NaCl (0.2M)
Comments : Fe(CN)63-/Fe(CN)64- 5.10-3 M
Reference electrode : SCE Saturated Calomel Electrode (0.241 V)
Electrode surface area : 0.001 cm²
Characteristic mass : 0.001 g
Equivalent Weight : 0.000 g/eq.
Density : 0.000 g/cm3
Cycle Definition : Charge/Discharge alternance
Ei (V)              0.000
vs.                 Ref
dE/dt               2.000
dE/dt unit          mV/s
E1 (V)              0.800
vs.                 Ref
Step percent        50
N                   10
E range min (V)     -10.000
E range max (V)     10.000
I Range             Auto
I Range min         Unset
I Range max         Unset
I Range init        Unset
Bandwidth           7
E2 (V)              0.000
vs.                 Ref
nc cycles           2
Reverse Scan        0
Ef (V)              0.000
vs.                 Eoc

mode	ox/red	error	control changes	counter inc.	time/s	control/V	Ewe/V	<I>/mA	cycle number	(Q-Qo)/C	P/W
2	1	0	1	0	3476.42	0.000439855	0.000113209	-0.499439	1	0.0000000E+000	-5.65412e-08
2	1	0	1	0	3492.66	0.0329277	0.0325104	-0.0778055	1	-0.00323486	-2.52949e-06
2	1	0	0	0	3510.68	0.0689568	0.0685401	0.0178162	1	-0.00360925	1.22112e-06
2	1	0	0	0	3527.61	0.10283	0.102442	0.0622046	1	-0.00286251	6.37234e-06
2	1	0	0	0	3544.55	0.136704	0.136337	0.0905155	1	-0.00151768	1.23406e-05
2	1	0	0	0	3561.64	0.170886	0.17051	0.11206	1	0.000257338	1.91073e-05
2	1	0	0	0	3578.58	0.204759	0.204343	0.129419	1	0.00233916	2.64459e-05
2	1	0	0	0	3595.52	0.238633	0.238256	0.145376	1	0.00469973	3.46368e-05
2	1	0	0	0	3612.45	0.272506	0.272122	0.160173	1	0.00731793	4.35865e-05
2	1	0	0	0	3629.39	0.30638	0.305929	0.174143	1	0.0101817	5.32754e-05
2	1	0	0	0	3646.33	0.340253	0.339805	0.187265	1	0.0132765	6.36334e-05
2	1	0	0	0	3663.26	0.374127	0.373668	0.199967	1	0.016592	7.47213e-05
2	1	0	0	0	3680.2	0.408001	0.407591	0.213425	1	0.0201275	8.69901e-05
2	1	0	0	0	3697.14	0.441874	0.441467	0.228288	1	0.023899	0.000100782
2	1	0	0	0	3714.07	0.475748	0.475267	0.246148	1	0.0279459	0.000116986
2	1	0	0	0	3731.01	0.509622	0.509174	0.266846	1	0.0323169	0.000135871
2	1	0	0	0	3747.95	0.543495	0.543077	0.290383	1	0.0370639	0.000157701
2	1	0	0	0	3764.88	0.577369	0.576926	0.316401	1	0.0422356	0.00018254
2	1	0	0	0	3781.82	0.611242	0.610806	0.344474	1	0.0478693	0.000210407
2	1	0	0	0	3798.76	0.645116	0.644666	0.373125	1	0.053987	0.000240541
2	1	0	0	0	3815.69	0.678989	0.678589	0.399792	1	0.0605719	0.000271295
2	1	0	0	0	3832.63	0.712863	0.712482	0.426299	1	0.0676	0.000303731
2	1	0	0	0	3849.57	0.746737	0.74632	0.45717	1	0.0751035	0.000341196
2	1	0	0	0	3866.5	0.78061	0.78016	0.496183	1	0.0831986	0.000387102
2	0	0	0	0	3881.59	0.788925	0.788504	0.27223	1	0.0901383	0.000214654
2	0	0	0	0	3898.69	0.754743	0.754339	0.0107865	1	0.0920942	8.1367e-06
2	0	0	1	0	3916.24	0.719638	0.719266	-0.102533	1	0.0911398	-7.37486e-05
2	0	0	0	0	3933.17	0.685764	0.685338	-0.163925	1	0.0888004	-0.000112344
2	0	0	1	0	3950.11	0.651891	0.651427	-0.202797	1	0.0856348	-0.000132107
2	0	0	0	0	3967.05	0.618017	0.617575	-0.229319	1	0.0819277	-0.000141622
2	0	0	0	0	3983.99	0.584143	0.583717	-0.247511	1	0.0778501	-0.000144476
2	0	0	0	0	4000.92	0.55027	0.549876	-0.260289	1	0.0735112	-0.000143127
2	0	0	0	0	4017.86	0.516396	0.515974	-0.268928	1	0.0689885	-0.00013876
2	0	0	0	0	4034.8	0.482523	0.482119	-0.272171	1	0.064359	-0.000131219
2	0	0	0	0	4051.73	0.448649	0.448228	-0.266948	1	0.0597483	-0.000119653
2	0	0	0	0	4068.67	0.414775	0.41432	-0.260317	1	0.0552519	-0.000107855
2	0	0	0	0	4085.61	0.380902	0.380459	-0.257688	1	0.0508398	-9.80396e-05
2	0	0	0	0	4102.54	0.347028	0.346604	-0.259666	1	0.046433	-9.00011e-05
2	0	0	0	0	4119.48	0.313155	0.312715	-0.263782	1	0.0419688	-8.24885e-05
2	0	0	0	0	4136.42	0.279281	0.278909	-0.267679	1	0.0374335	-7.46582e-05
2	0	0	0	0	4153.35	0.245407	0.245019	-0.270678	1	0.0328383	-6.63213e-05
2	0	0	0	0	4170.29	0.211534	0.211181	-0.271796	1	0.0282073	-5.73983e-05
2	0	0	0	0	4187.23	0.17766	0.177268	-0.271858	1	0.0235677	-4.81917e-05
2	0	0	0	0	4204.16	0.143787	0.143368	-0.270604	1	0.0189413	-3.87961e-05
2	0	0	0	0	4221.1	0.109913	0.109506	-0.26931	1	0.014338	-2.94911e-05
2	0	0	0	0	4238.04	0.0760395	0.0756438	-0.268644	1	0.00975124	-2.03212e-05
2	0	0	0	0	4254.97	0.042166	0.0417964	-0.269163	1	0.00516333	-1.125e-05
2	0	0	0	0	4271.91	0.00829237	0.00785659	-0.271169	1	0.000554706	-2.13046e-06
2	1	0	1	1	4286.23	0.02061	0.0202201	-0.0411018	2	-0.00172403	-8.31082e-07
2	1	0	0	1	4303.78	0.0557154	0.0553088	0.0458044	2	-0.00150815	2.53339e-06
2	1	0	0	1	4320.72	0.089589	0.0892667	0.0838715	2	-0.000344781	7.48693e-06
2	1	0	0	1	4337.81	0.123771	0.123341	0.107498	2	0.00133516	1.32589e-05
2	1	0	0	1	4354.75	0.157644	0.157236	0.12514	2	0.00334203	1.96766e-05
2	1	0	0	1	4371.68	0.191518	0.191105	0.13951	2	0.00561735	2.66611e-05
2	1	0	0	1	4388.62	0.225391	0.224995	0.152648	2	0.00812723	3.4345e-05
2	1	0	0	1	4405.56	0.259265	0.258849	0.165453	2	0.0108572	4.28274e-05
2	1	0	0	1	4422.49	0.293138	0.292712	0.177565	2	0.0137994	5.19755e-05
2	1	0	0	1	4439.43	0.327012	0.326532	0.189872	2	0.0169457	6.19993e-05
2	1	0	0	1	4456.37	0.360886	0.360482	0.201652	2	0.0202928	7.26918e-05
2	1	0	0	1	4473.31	0.394759	0.394316	0.214504	2	0.0238467	8.45824e-05
2	1	0	0	1	4490.24	0.428633	0.428198	0.228984	2	0.0276303	9.80502e-05
2	1	0	0	1	4507.18	0.462506	0.462041	0.246127	2	0.0316844	0.000113721
2	1	0	0	1	4524.12	0.49638	0.495939	0.266605	2	0.0360606	0.00013222
2	1	0	0	1	4541.05	0.530254	0.52979	0.289807	2	0.0408077	0.000153537
2	1	0	0	1	4557.99	0.564127	0.56368	0.315931	2	0.0459716	0.000178084
2	1	0	0	1	4574.93	0.598001	0.597569	0.343535	2	0.0515878	0.000205286
2	1	0	0	1	4591.86	0.631874	0.631466	0.37247	2	0.0576821	0.000235202
2	1	0	0	1	4608.8	0.665748	0.665338	0.399732	2	0.0642555	0.000265957
2	1	0	0	1	4625.74	0.699622	0.699158	0.424983	2	0.0712769	0.00029713
2	1	0	0	1	4642.67	0.733495	0.733054	0.451208	2	0.078731	0.00033076
2	1	0	0	1	4659.61	0.767369	0.766886	0.483203	2	0.0866733	0.000370561
2	0	0	1	1	4675.85	0.799857	0.799372	0.523456	2	0.094875	0.000418436
2	0	0	0	1	4692.1	0.767369	0.766888	0.0771258	2	0.0986138	5.91468e-05
2	0	0	1	1	4709.81	0.731955	0.731576	-0.0703668	2	0.0984701	-5.14787e-05
2	0	0	1	1	4726.9	0.697774	0.697355	-0.145454	2	0.0965319	-0.000101433
2	0	0	1	1	4743.83	0.6639	0.663368	-0.190632	2	0.0936262	-0.000126459
2	0	0	1	1	4760.77	0.630027	0.629598	-0.220113	2	0.0900991	-0.000138583
2	0	0	1	1	4777.71	0.596153	0.595728	-0.240395	2	0.0861516	-0.00014321
2	0	0	1	1	4794.64	0.56228	0.561893	-0.25456	2	0.0819159	-0.000143036
2	0	0	1	1	4811.58	0.528406	0.527982	-0.264446	2	0.0774786	-0.000139623
2	0	0	1	1	4828.52	0.494532	0.494091	-0.269949	2	0.0729109	-0.000133379
2	0	0	1	1	4845.45	0.460659	0.460211	-0.268046	2	0.0683112	-0.000123358
2	0	0	1	1	4862.39	0.426785	0.426309	-0.26147	2	0.0637974	-0.000111467
2	0	0	1	1	4879.33	0.392912	0.392483	-0.257378	2	0.0593798	-0.000101016
2	0	0	1	1	4896.26	0.359038	0.35861	-0.258521	2	0.0549846	-9.27081e-05
2	0	0	1	1	4913.2	0.325164	0.324754	-0.263771	2	0.0505302	-8.56605e-05
2	0	0	1	1	4930.14	0.291291	0.290877	-0.269901	2	0.0459752	-7.85079e-05
2	0	0	1	1	4947.07	0.257417	0.257008	-0.274905	2	0.0413241	-7.06529e-05
2	0	0	1	1	4964.01	0.223544	0.22311	-0.277346	2	0.0366114	-6.18787e-05
2	0	0	1	1	4980.95	0.18967	0.189245	-0.277384	2	0.0318795	-5.24936e-05
2	0	0	1	1	4997.88	0.155796	0.155403	-0.275504	2	0.027164	-4.28141e-05
2	0	0	1	1	5014.82	0.121923	0.121524	-0.273093	2	0.0224834	-3.31873e-05
2	0	0	1	1	5031.76	0.0880493	0.087687	-0.271203	2	0.0178413	-2.37809e-05
2	0	0	1	1	5048.7	0.0541757	0.0538087	-0.270209	2	0.013223	-1.45396e-05
2	0	0	1	1	5065.63	0.0203021	0.019887	-0.270944	2	0.00860823	-5.38826e-06
2	1	0	1	0	5081.18	0.0110638	0.0106647	-0.0960397	3	0.00499476	-1.02424e-06
2	1	0	0	0	5099.04	0.046785	0.0464483	0.0315414	3	0.00472541	1.46504e-06
2	1	0	0	0	5115.98	0.0806586	0.0803414	0.0761163	3	0.00570919	6.11529e-06
2	1	0	0	0	5133.07	0.11484	0.114443	0.102306	3	0.00727899	1.17083e-05
2	1	0	0	0	5150.01	0.148714	0.148306	0.120661	3	0.00920563	1.78948e-05
2	1	0	0	0	5166.95	0.182587	0.182206	0.135721	3	0.0114151	2.47292e-05
2	1	0	0	0	5183.88	0.216461	0.216043	0.149052	3	0.013864	3.22016e-05
2	1	0	0	0	5200.82	0.250334	0.249931	0.161852	3	0.0165334	4.04518e-05
2	1	0	0	0	5217.76	0.284208	0.283777	0.173971	3	0.0194126	4.93689e-05
2	1	0	0	0	5234.69	0.318082	0.317646	0.185925	3	0.0224941	5.90582e-05
2	1	0	0	0	5251.63	0.351955	0.351487	0.197888	3	0.0257747	6.95551e-05
2	1	0	0	0	5268.57	0.385829	0.385381	0.210338	3	0.029261	8.10604e-05
2	1	0	0	0	5285.5	0.419702	0.419284	0.224738	3	0.0329766	9.42291e-05
2	1	0	0	0	5302.44	0.453576	0.453145	0.242078	3	0.0369616	0.000109696
2	1	0	0	0	5319.38	0.48745	0.487037	0.262567	3	0.0412686	0.00012788
2	1	0	0	0	5336.31	0.521323	0.520869	0.285782	3	0.0459447	0.000148855
2	1	0	0	0	5353.25	0.555197	0.55475	0.311266	3	0.0510323	0.000172675
2	1	0	0	0	5370.19	0.58907	0.5887	0.33821	3	0.0565612	0.000199104
2	1	0	0	0	5387.12	0.622944	0.622515	0.365994	3	0.0625577	0.000227837
2	1	0	1	0	5404.06	0.656818	0.656361	0.393381	3	0.0690303	0.0002582
2	1	0	1	0	5421	0.690691	0.690251	0.418663	3	0.0759478	0.000288983
2	1	0	1	0	5437.93	0.724565	0.724146	0.443639	3	0.0832865	0.00032126
2	1	0	1	0	5454.87	0.758438	0.758037	0.473265	3	0.0910794	0.000358752
2	1	0	1	0	5471.81	0.792312	0.791916	0.511364	3	0.0994402	0.000404958
2	0	0	0	0	5487.21	0.776607	0.776143	0.141019	3	0.104626	0.000109451
2	0	0	1	0	5504.91	0.741194	0.740753	-0.0428722	3	0.10522	-3.17577e-05
2	0	0	1	0	5522	0.707012	0.706615	-0.129662	3	0.103638	-9.16214e-05
2	0	0	1	0	5538.94	0.673138	0.672697	-0.18033	3	0.10094	-0.000121308
2	0	0	1	0	5555.88	0.639265	0.638838	-0.2133	3	0.0975506	-0.000136264
2	0	0	1	0	5572.81	0.605391	0.604933	-0.235217	3	0.0937017	-0.00014229
2	0	0	1	0	5589.75	0.571518	0.571056	-0.250816	3	0.0895424	-0.00014323
2	0	0	1	0	5606.69	0.537644	0.537234	-0.261226	3	0.0851688	-0.00014034
2	0	0	1	0	5623.62	0.503771	0.503365	-0.267877	3	0.0806507	-0.00013484
2	0	0	1	0	5640.56	0.469897	0.469497	-0.268041	3	0.0760677	-0.000125844
2	0	0	1	0	5657.5	0.436023	0.435602	-0.262224	3	0.0715373	-0.000114225
2	0	0	1	0	5674.43	0.40215	0.401701	-0.257709	3	0.0671046	-0.000103522
2	0	0	1	0	5691.37	0.368276	0.36785	-0.25802	3	0.0627095	-9.49128e-05
2	0	0	1	0	5708.31	0.334403	0.334009	-0.264117	3	0.0582583	-8.82176e-05
2	0	0	1	0	5725.24	0.300529	0.300095	-0.271722	3	0.0536895	-8.15423e-05
2	0	0	1	0	5742.18	0.266655	0.266245	-0.278148	3	0.0489983	-7.40557e-05
2	0	0	1	0	5759.12	0.232782	0.232438	-0.281314	3	0.0442247	-6.53881e-05
2	0	0	1	0	5776.05	0.198908	0.198499	-0.281267	3	0.0394223	-5.58314e-05
2	0	0	1	0	5792.99	0.165035	0.164631	-0.2793	3	0.0346375	-4.59813e-05
2	0	0	1	0	5809.93	0.131161	0.130803	-0.276058	3	0.0298971	-3.61093e-05
2	0	0	1	0	5826.87	0.0972876	0.0968467	-0.273602	3	0.0252092	-2.64974e-05
2	0	0	1	0	5843.8	0.063414	0.0629696	-0.271644	3	0.0205625	-1.71053e-05
2	0	0	1	0	5860.74	0.0295404	0.0291624	-0.271396	3	0.0159358	-7.91454e-06
2	0	0	0	0	5875.43	0.000131913	-0.000364188	-0.272483	3	0.0119184	9.92352e-08