File: Input_data/[1] JJ1-53 1st SC total meas_11_CV.mpt
EC-Lab ASCII FILE
Nb header lines : 56

Cyclic Voltammetry

Run on channel : 1 (SN 31418)
User :
CE vs. WE compliance from -10 V to 10 V
Electrode connection : standard
Ewe ctrl range : min = -10.00 V, max = 10.00 V
Safety Limits :
	Do not start on E overload
Acquisition started on : 01/25/2023 15:21:28
Technique started on : 01/25/2023 17:55:22
Saved on :
	File : [1] JJ1-53 1st SC total meas_11_CV.mpr
	Directory : C:\Users\Potentiostat\Documents\EC-Lab\Data\Supercapacitor until 2021 02\(230125) SC JJ1-53 54 lower CB better viscosity\
	Host : 127.0.0.1
Device : SP-150 (SN 1275)
Address : USB
EC-Lab for windows v11.16 (software)
Internet server v11.16 (firmware)
Command interpretor v11.16 (firmware)
Electrode material : Au/Pd
Initial state :
Electrolyte : NaCl (0.2M)
Comments : Fe(CN)63-/Fe(CN)64- 5.10-3 M
Reference electrode : SCE Saturated Calomel Electrode (0.241 V)
Electrode surface area : 0.001 cm²
Characteristic mass : 0.001 g
Equivalent Weight : 0.000 g/eq.
Density : 0.000 g/cm3
Cycle Definition : Charge/Discharge alternance
Ei (V)              0.000
vs.                 Ref
dE/dt               50.000
dE/dt unit          mV/s
E1 (V)              0.800
vs.                 Ref
Step percent        50
N                   10
E range min (V)     -10.000
E range max (V)     10.000
I Range             Auto
I Range min         Unset
I Range max         Unset
I Range init        Unset
Bandwidth           7
E2 (V)              0.000
vs.                 Ref
nc cycles           5
Reverse Scan        0
Ef (V)              0.000
vs.                 Eoc

mode	ox/red	error	control changes	counter inc.	time/s	control/V	Ewe/V	<I>/mA	cycle number	(Q-Qo)/C	P/W
2	1	0	1	0	9234.9	0.00475104	0.0043334	-1.79078	1	0.0000000E+000	-7.76019e-06
2	1	0	0	0	9236.26	0.0729646	0.072567	-0.32969	1	-0.00126512	-2.39246e-05
2	1	0	0	0	9237.61	0.140704	0.140263	0.445048	1	-0.00114611	6.24239e-05
2	1	0	1	0	9238.97	0.208453	0.208052	0.985482	1	-0.000153719	0.000205031
2	1	0	0	0	9240.36	0.277745	0.277297	1.40555	1	0.00151819	0.000389753
2	1	0	0	0	9241.71	0.345489	0.344993	1.74135	1	0.00365962	0.000600752
2	1	0	1	0	9243.07	0.413235	0.412688	2.04005	1	0.00622831	0.000841904
2	1	0	0	0	9244.42	0.480984	0.480517	2.32677	1	0.00919092	0.00111805
2	1	0	1	0	9245.78	0.548733	0.54821	2.61994	1	0.012544	0.00143628
2	1	0	1	0	9247.13	0.616474	0.616017	2.93332	1	0.0163071	0.00180698
2	1	0	0	0	9248.48	0.684223	0.683767	3.27456	1	0.0205144	0.00223904
2	1	0	1	0	9249.84	0.751975	0.751515	3.64077	1	0.0252006	0.00273609
2	0	0	1	0	9251.14	0.782762	0.782287	3.25075	1	0.0300372	0.00254302
2	0	0	1	0	9252.49	0.715022	0.714538	1.48275	1	0.0331451	0.00105948
2	0	0	1	0	9253.89	0.645423	0.644998	0.255746	1	0.0343008	0.000164956
2	0	0	1	0	9255.24	0.577677	0.577213	-0.614402	1	0.0340241	-0.000354641
2	0	0	0	0	9256.63	0.508393	0.507879	-1.28029	1	0.0326856	-0.000650235
2	0	0	1	0	9257.98	0.440641	0.440185	-1.77291	1	0.0305974	-0.000780409
2	0	0	0	0	9259.34	0.372892	0.372334	-2.14925	1	0.0279245	-0.000800239
2	0	0	0	0	9260.69	0.305152	0.304675	-2.42556	1	0.0248118	-0.00073901
2	0	0	1	0	9262.05	0.237402	0.236919	-2.63473	1	0.0213746	-0.000624217
2	0	0	0	0	9263.4	0.169653	0.169249	-2.80939	1	0.0176788	-0.000475485
2	0	0	0	0	9264.76	0.101907	0.101414	-2.96269	1	0.0137627	-0.000300457
2	0	0	1	0	9266.11	0.0341628	0.03372	-3.10534	1	0.00964785	-0.000104712
2	1	0	0	1	9267.38	0.0295437	0.0290769	-2.18377	2	0.00596097	-6.34972e-05
2	1	0	0	1	9268.74	0.0972842	0.096788	-0.801408	2	0.00402704	-7.75667e-05
2	1	0	1	1	9270.12	0.166573	0.166208	0.0981886	2	0.00358484	1.63198e-05
2	1	0	0	1	9271.48	0.234325	0.233964	0.720687	2	0.00416496	0.000168615
2	1	0	0	1	9272.86	0.303608	0.303118	1.20561	2	0.00551714	0.000365443
2	1	0	1	1	9274.22	0.371355	0.370839	1.59127	2	0.00742365	0.000590106
2	1	0	0	1	9275.57	0.439104	0.438614	1.92967	2	0.00981689	0.00084638
2	1	0	1	1	9276.93	0.506854	0.506363	2.248	2	0.0126518	0.0011383
2	1	0	1	1	9278.28	0.574594	0.574019	2.56921	2	0.0159179	0.00147477
2	1	0	0	1	9279.64	0.642343	0.641835	2.90876	2	0.0196308	0.00186695
2	1	0	1	1	9280.99	0.710095	0.709583	3.2689	2	0.0238169	0.00231955
2	1	0	1	1	9282.35	0.777839	0.777328	3.65527	2	0.0285086	0.00284134
2	0	0	0	1	9283.62	0.758132	0.757638	2.39301	2	0.0326751	0.00181303
2	0	0	1	1	9284.98	0.690382	0.689888	0.898103	2	0.0348329	0.00061959
2	0	0	1	1	9286.36	0.621096	0.62067	-0.172739	2	0.0352912	-0.000107214
2	0	0	0	1	9287.72	0.553353	0.552975	-0.941939	2	0.0345062	-0.000520869
2	0	0	1	1	9289.1	0.484061	0.483585	-1.53428	2	0.0327661	-0.000741954
2	0	0	0	1	9290.46	0.416312	0.415809	-1.97303	2	0.0303722	-0.000820405
2	0	0	0	1	9291.81	0.348572	0.3481	-2.30455	2	0.0274596	-0.000802215
2	0	0	1	1	9293.17	0.280822	0.280375	-2.54404	2	0.0241626	-0.000713286
2	0	0	0	1	9294.52	0.213072	0.212629	-2.7335	2	0.0205792	-0.000581223
2	0	0	0	1	9295.88	0.145326	0.144857	-2.89441	2	0.0167609	-0.000419275
2	0	0	1	1	9297.23	0.0775826	0.0770859	-3.03731	2	0.0127379	-0.000234134
2	0	0	0	1	9298.59	0.00983208	0.00937806	-3.17601	2	0.00852432	-2.97848e-05
2	1	0	1	0	9299.86	0.0541746	0.0536761	-1.61167	3	0.00541463	-8.65082e-05
2	1	0	0	0	9301.22	0.121924	0.121472	-0.455352	3	0.00407844	-5.53125e-05
2	1	0	1	0	9302.61	0.191514	0.191114	0.335825	3	0.00403212	6.4181e-05
2	1	0	0	0	9303.97	0.259264	0.258869	0.89651	3	0.00488905	0.000232078
2	1	0	1	0	9305.35	0.328555	0.328064	1.34481	3	0.00645772	0.000441184
2	1	0	1	0	9306.71	0.396299	0.395785	1.70994	3	0.00853668	0.000676768
2	1	0	0	0	9308.06	0.464044	0.463575	2.03713	3	0.0110814	0.000944363
2	1	0	1	0	9309.42	0.531794	0.531301	2.35451	3	0.0140612	0.00125095
2	1	0	0	0	9310.77	0.599544	0.598988	2.68102	3	0.0174753	0.0016059
2	1	0	0	0	9312.13	0.667284	0.666807	3.02673	3	0.021343	0.00201825
2	1	0	1	0	9313.48	0.735034	0.73455	3.39497	3	0.0256947	0.00249377
2	0	0	0	0	9314.78	0.799857	0.799391	3.77573	3	0.0303455	0.00301828
2	0	0	0	0	9316.11	0.733492	0.732987	1.76678	3	0.0338753	0.00129503
2	0	0	0	0	9317.46	0.665751	0.665215	0.465872	3	0.0353303	0.000309905
2	0	0	1	0	9318.85	0.596462	0.596039	-0.488065	3	0.0352758	-0.000290906
2	0	0	0	0	9320.23	0.527172	0.526696	-1.19501	3	0.0340814	-0.000629408
2	0	0	0	0	9321.59	0.459427	0.458904	-1.71561	3	0.0320893	-0.0007873
2	0	0	1	0	9322.94	0.391683	0.391189	-2.11121	3	0.0294807	-0.000825882
2	0	0	0	0	9324.3	0.323931	0.323447	-2.40499	3	0.026406	-0.000777888
2	0	0	1	0	9325.65	0.256182	0.255728	-2.62052	3	0.0229915	-0.000670139
2	0	0	1	0	9327.01	0.188442	0.188008	-2.79638	3	0.0193155	-0.000525743
2	0	0	0	0	9328.36	0.120692	0.120206	-2.9476	3	0.0154182	-0.00035432
2	0	0	1	0	9329.72	0.0529428	0.0524703	-3.08751	3	0.0113247	-0.000162002
2	1	0	0	1	9330.99	0.011065	0.0105726	-2.75969	4	0.00735606	-2.9177e-05
2	1	0	1	1	9332.35	0.0788144	0.0783843	-1.12755	4	0.00484409	-8.8382e-05
2	1	0	0	1	9333.74	0.148405	0.147984	-0.120071	4	0.00402923	-1.77686e-05
2	1	0	1	1	9335.09	0.216154	0.215723	0.558428	4	0.00435568	0.000120466
2	1	0	0	1	9336.48	0.285444	0.284953	1.07839	4	0.00550938	0.00030729
2	1	0	0	1	9337.83	0.353184	0.352738	1.48337	4	0.00725706	0.000523241
2	1	0	1	1	9339.19	0.420933	0.420424	1.83012	4	0.00951066	0.000769427
2	1	0	0	1	9340.54	0.488685	0.488175	2.15118	4	0.0122138	0.00105015
2	1	0	0	1	9341.9	0.556429	0.555983	2.4699	4	0.0153474	0.00137322
2	1	0	1	1	9343.25	0.624175	0.623681	2.80119	4	0.0189202	0.00174705
2	1	0	0	1	9344.61	0.691924	0.69139	3.15359	4	0.0229568	0.00218036
2	1	0	1	1	9345.96	0.759673	0.759165	3.53244	4	0.0274874	0.0026817
2	0	0	0	1	9347.23	0.776607	0.776106	2.91261	4	0.0319633	0.00226049
2	0	0	1	1	9348.59	0.708862	0.708359	1.23542	4	0.0346836	0.000875123
2	0	0	0	1	9349.97	0.639572	0.639163	0.0666307	4	0.0355346	4.25879e-05
2	0	0	1	1	9351.33	0.571822	0.57143	-0.766741	4	0.0350277	-0.000438138
2	0	0	1	1	9352.71	0.502542	0.502008	-1.40414	4	0.0334988	-0.00070489
2	0	0	0	1	9354.07	0.434793	0.434288	-1.87375	4	0.0312593	-0.000813748
2	0	0	1	1	9355.42	0.367041	0.366524	-2.23077	4	0.0284623	-0.000817632
2	0	0	1	1	9356.78	0.299297	0.298828	-2.49038	4	0.0252502	-0.000744195
2	0	0	0	1	9358.13	0.231552	0.231114	-2.6876	4	0.0217343	-0.000621143
2	0	0	1	1	9359.49	0.163802	0.163386	-2.85229	4	0.0179744	-0.000466024
2	0	0	0	1	9360.84	0.0960524	0.0956106	-2.9978	4	0.0140056	-0.000286621
2	0	0	0	1	9362.2	0.0283119	0.0278054	-3.13622	4	0.009847	-8.72037e-05
2	1	0	1	0	9363.47	0.0356992	0.0352305	-2.0388	5	0.00624396	-7.18279e-05
2	1	0	0	0	9364.83	0.103444	0.102974	-0.719459	5	0.00445575	-7.40859e-05
2	1	0	0	0	9366.22	0.173045	0.172646	0.154581	5	0.00410597	2.66878e-05
2	1	0	0	0	9367.58	0.240784	0.240364	0.760832	5	0.00475049	0.000182877
2	1	0	1	0	9368.96	0.310074	0.309595	1.23549	5	0.00615036	0.000382503
2	1	0	0	0	9370.32	0.377823	0.377285	1.61474	5	0.0080926	0.000609216
2	1	0	0	0	9371.67	0.44557	0.445069	1.94919	5	0.0105142	0.000867526
2	1	0	1	0	9373.03	0.513313	0.512815	2.2663	5	0.0133738	0.00116219
2	1	0	0	0	9374.38	0.581064	0.580573	2.5871	5	0.0166644	0.001502
2	1	0	1	0	9375.74	0.648814	0.648278	2.92552	5	0.0204015	0.00189655
2	1	0	1	0	9377.09	0.716558	0.716087	3.28671	5	0.0246112	0.00235357
2	1	0	0	0	9378.45	0.784304	0.783814	3.67616	5	0.0293281	0.00288142
2	0	0	0	0	9379.72	0.751973	0.751472	2.21163	5	0.0332794	0.00166198
2	0	0	1	0	9381.07	0.684221	0.683743	0.771294	5	0.0352319	0.000527367
2	0	0	1	0	9382.46	0.614938	0.614497	-0.267733	5	0.0355374	-0.000164521
2	0	0	0	0	9383.83	0.546421	0.545975	-1.02335	5	0.0346234	-0.000558724
2	0	0	1	0	9385.2	0.477902	0.477455	-1.59088	5	0.0328094	-0.000759574
2	0	0	1	0	9386.55	0.410156	0.409675	-2.01698	5	0.0303477	-0.000826306
2	0	0	0	0	9387.91	0.342412	0.341863	-2.3365	5	0.0273834	-0.000798763
2	0	0	1	0	9389.26	0.274663	0.274193	-2.56636	5	0.0240504	-0.00070368
2	0	0	0	0	9390.62	0.206911	0.206464	-2.74934	5	0.0204414	-0.000567642
2	0	0	0	0	9391.97	0.139168	0.138704	-2.90574	5	0.0166042	-0.000403038
2	0	0	1	0	9393.33	0.0714215	0.0709419	-3.04651	5	0.0125675	-0.000216125
2	0	0	0	0	9394.68	0.00367213	0.00322188	-3.18367	5	0.00834284	-1.02574e-05
2	1	0	1	1	9395.96	0.0603334	0.059826	-1.47749	6	0.00544182	-8.83924e-05
2	1	0	0	1	9397.35	0.129929	0.129555	-0.344227	6	0.00423816	-4.45962e-05
2	1	0	1	1	9398.7	0.197673	0.197282	0.398234	6	0.00430735	7.85646e-05
2	1	0	0	1	9400.06	0.265425	0.264971	0.943504	6	0.00523745	0.000250001
2	1	0	1	1	9401.44	0.334714	0.334149	1.38131	6	0.00686381	0.000461564
2	1	0	1	1	9402.8	0.402454	0.40195	1.74038	6	0.0089883	0.000699546
2	1	0	0	1	9404.15	0.470204	0.469707	2.06529	6	0.0115723	0.000970081
2	1	0	1	1	9405.51	0.537953	0.537445	2.38076	6	0.0145882	0.00127953
2	1	0	1	1	9406.86	0.605699	0.605228	2.70735	6	0.0180377	0.00163856
2	1	0	0	1	9408.22	0.673443	0.672925	3.05329	6	0.0219418	0.00205464
2	1	0	1	1	9409.57	0.741195	0.740701	3.423	6	0.0263302	0.00253542
2	0	0	1	1	9410.84	0.795082	0.794553	3.55698	6	0.0308998	0.00282621
2	0	0	1	1	9412.2	0.727336	0.726842	1.61989	6	0.0342788	0.0011774
2	0	0	0	1	9413.58	0.658053	0.657626	0.337143	6	0.0355771	0.000221714
2	0	0	1	1	9414.94	0.590301	0.589911	-0.566269	6	0.0353864	-0.000334048
2	0	0	0	1	9416.32	0.521012	0.520487	-1.25425	6	0.0340975	-0.000652821
2	0	0	0	1	9417.68	0.453271	0.45273	-1.76077	6	0.0320353	-0.000797152
2	0	0	1	1	9419.03	0.385522	0.38503	-2.14582	6	0.0293728	-0.000826204
2	0	0	0	1	9420.39	0.317773	0.317216	-2.42807	6	0.0262595	-0.000770221
2	0	0	0	1	9421.74	0.250027	0.249557	-2.63613	6	0.0228191	-0.000657865
2	0	0	1	1	9423.1	0.182283	0.1818	-2.80804	6	0.0191239	-0.000510501
2	0	0	0	1	9424.45	0.114532	0.114122	-2.95617	6	0.0152131	-0.000337363
2	0	0	1	1	9425.81	0.0467817	0.0463347	-3.09452	6	0.0111095	-0.000143384
2	0	0	1	1	9426.74	-0.000131913	-0.0003069	-3.18928	6	0.0081765	9.7879e-07