File: Input_data/[1] JJ1-53 1st SC total meas_08_CV.mpt
EC-Lab ASCII FILE
Nb header lines : 56

Cyclic Voltammetry

Run on channel : 1 (SN 31418)
User :
CE vs. WE compliance from -10 V to 10 V
Electrode connection : standard
Ewe ctrl range : min = -10.00 V, max = 10.00 V
Safety Limits :
	Do not start on E overload
Acquisition started on : 01/25/2023 15:21:28
Technique started on : 01/25/2023 16:59:23
Saved on :
	File : [1] JJ1-53 1st SC total meas_08_CV.mpr
	Directory : C:\Users\Potentiostat\Documents\EC-Lab\Data\Supercapacitor until 2021 02\(230125) SC JJ1-53 54 lower CB better viscosity\
	Host : 127.0.0.1
Device : SP-150 (SN 1275)
Address : USB
EC-Lab for windows v11.16 (software)
Internet server v11.16 (firmware)
Command interpretor v11.16 (firmware)
Electrode material : Au/Pd
Initial state :
Electrolyte : NaCl (0.2M)
Comments : Fe(CN)63-/Fe(CN)64- 5.10-3 M
Reference electrode : SCE Saturated Calomel Electrode (0.241 V)
Electrode surface area : 0.001 cm²
Characteristic mass : 0.001 g
Equivalent Weight : 0.000 g/eq.
Density : 0.000 g/cm3
Cycle Definition : Charge/Discharge alternance
Ei (V)              0.000
vs.                 Ref
dE/dt               5.000
dE/dt unit          mV/s
E1 (V)              0.800
vs.                 Ref
Step percent        50
N                   10
E range min (V)     -10.000
E range max (V)     10.000
I Range             Auto
I Range min         Unset
I Range max         Unset
I Range init        Unset
Bandwidth           7
E2 (V)              0.000
vs.                 Ref
nc cycles           5
Reverse Scan        0
Ef (V)              0.000
vs.                 Eoc

mode	ox/red	error	control changes	counter inc.	time/s	control/V	Ewe/V	<I>/mA	cycle number	(Q-Qo)/C	P/W
2	1	0	1	0	5875.66	0.000439855	0.000151401	-0.276929	1	0.0000000E+000	-4.19274e-08
2	1	0	1	0	5889.05	0.0674173	0.0670678	0.173395	1	0.000561806	1.16292e-05
2	1	0	0	0	5902.6	0.135164	0.134741	0.271934	1	0.00369899	3.66408e-05
2	1	0	1	0	5916.15	0.202912	0.202571	0.328953	1	0.00782237	6.66364e-05
2	1	0	0	0	5929.7	0.270659	0.270293	0.375186	1	0.0126252	0.00010141
2	1	0	0	0	5943.25	0.338406	0.337988	0.42017	1	0.018042	0.000142012
2	1	0	1	0	5956.8	0.406153	0.405756	0.469579	1	0.0240905	0.000190534
2	1	0	0	0	5970.35	0.4739	0.473485	0.531443	1	0.0308779	0.000251631
2	1	0	1	0	5983.9	0.541648	0.541202	0.610941	1	0.0386245	0.000330642
2	1	0	0	0	5997.45	0.609395	0.608974	0.708565	1	0.0475812	0.000431498
2	1	0	0	0	6011	0.677142	0.676727	0.815798	1	0.057942	0.000552072
2	1	0	1	0	6024.55	0.744889	0.744488	0.919241	1	0.0697286	0.000684364
2	0	0	0	0	6037.11	0.792004	0.791633	0.746088	1	0.0816782	0.000590628
2	0	0	1	0	6050.78	0.723641	0.723263	-0.0594466	1	0.0850032	-4.29955e-05
2	0	0	0	0	6064.39	0.655586	0.655194	-0.322939	1	0.0821214	-0.000211588
2	0	0	1	0	6077.94	0.587839	0.587405	-0.449185	1	0.0767708	-0.000263854
2	0	0	0	0	6091.49	0.520092	0.519654	-0.521691	1	0.0701214	-0.000271099
2	0	0	1	0	6105.04	0.452344	0.4519	-0.561958	1	0.0627064	-0.000253949
2	0	0	1	0	6118.59	0.384597	0.384143	-0.556443	1	0.0550689	-0.000213754
2	0	0	0	0	6132.14	0.31685	0.316433	-0.555642	1	0.0475403	-0.000175823
2	0	0	1	0	6145.69	0.249103	0.24874	-0.57341	1	0.0398635	-0.00014263
2	0	0	0	0	6159.24	0.181356	0.180921	-0.586047	1	0.0319642	-0.000106028
2	0	0	1	0	6172.79	0.113608	0.113202	-0.587394	1	0.0239796	-6.64944e-05
2	0	0	1	0	6186.34	0.0458611	0.0454722	-0.586827	1	0.0160006	-2.66843e-05
2	1	0	0	1	6198.9	0.0172227	0.016837	-0.240259	2	0.00931868	-4.04523e-06
2	1	0	1	1	6212.58	0.0855857	0.0852024	0.112213	2	0.0090811	9.56086e-06
2	1	0	0	1	6226.12	0.153333	0.152884	0.230185	2	0.0115191	3.51915e-05
2	1	0	0	1	6239.67	0.22108	0.220682	0.299941	2	0.015166	6.61915e-05
2	1	0	1	1	6253.22	0.288827	0.2884	0.356288	2	0.0196498	0.000102753
2	1	0	0	1	6266.77	0.356574	0.356144	0.408458	2	0.0248583	0.00014547
2	1	0	1	1	6280.32	0.424322	0.423882	0.462248	2	0.0307761	0.000195939
2	1	0	0	1	6293.87	0.492069	0.491613	0.530123	2	0.0375097	0.000260615
2	1	0	0	1	6307.42	0.559816	0.559443	0.617335	2	0.0452964	0.000345364
2	1	0	1	1	6320.97	0.627563	0.627161	0.717346	2	0.0543551	0.000449891
2	1	0	0	1	6334.52	0.69531	0.694884	0.816873	2	0.0647822	0.000567632
2	1	0	1	1	6348.07	0.763058	0.762659	0.91808	2	0.0765578	0.000700182
2	0	0	0	1	6360.7	0.773528	0.773105	0.373399	2	0.0868172	0.000288677
2	0	0	1	1	6374.37	0.705165	0.704759	-0.165306	2	0.0875046	-0.000116501
2	0	0	0	1	6387.92	0.637417	0.63706	-0.37168	2	0.0836572	-0.000236783
2	0	0	0	1	6401.47	0.56967	0.569205	-0.477551	2	0.0778025	-0.000271824
2	0	0	1	1	6415.02	0.501923	0.50151	-0.540559	2	0.0708464	-0.000271096
2	0	0	0	1	6428.57	0.434176	0.43376	-0.567143	2	0.0632566	-0.000246004
2	0	0	1	1	6442.12	0.366429	0.366012	-0.555477	2	0.055611	-0.000203311
2	0	0	0	1	6455.67	0.298681	0.298238	-0.562932	2	0.0480305	-0.000167888
2	0	0	0	1	6469.21	0.230934	0.230494	-0.58123	2	0.0402505	-0.00013397
2	0	0	1	1	6482.76	0.163187	0.162786	-0.59033	2	0.0322706	-9.60974e-05
2	0	0	0	1	6496.31	0.0954399	0.0950283	-0.590031	2	0.0242382	-5.60696e-05
2	0	0	1	1	6509.86	0.0276927	0.0272676	-0.590724	2	0.0162194	-1.61076e-05
2	1	0	1	0	6522.49	0.0356993	0.0353251	-0.0839133	3	0.0110963	-2.96424e-06
2	1	0	0	0	6536.16	0.104062	0.103626	0.152164	3	0.0119028	1.57681e-05
2	1	0	1	0	6549.71	0.171809	0.171432	0.25103	3	0.0147299	4.30345e-05
2	1	0	0	0	6563.26	0.239557	0.239179	0.315804	3	0.0186181	7.55336e-05
2	1	0	1	0	6576.81	0.307304	0.306891	0.369913	3	0.0232977	0.000113523
2	1	0	1	0	6590.36	0.375051	0.37462	0.421079	3	0.0286856	0.000157745
2	1	0	0	0	6603.91	0.442798	0.442389	0.478224	3	0.034795	0.000211561
2	1	0	1	0	6617.46	0.510545	0.510126	0.552716	3	0.0417864	0.000281955
2	1	0	0	0	6631.01	0.578293	0.577829	0.643654	3	0.0499071	0.000371922
2	1	0	1	0	6644.56	0.64604	0.645628	0.743605	3	0.0593368	0.000480092
2	1	0	1	0	6658.11	0.713787	0.71338	0.841406	3	0.0701095	0.000600242
2	1	0	0	0	6671.66	0.781534	0.7811	0.945367	3	0.0822202	0.000738426
2	0	0	1	0	6684.28	0.755051	0.754589	0.157965	3	0.0899391	0.000119199
2	0	0	0	0	6697.96	0.686688	0.68629	-0.239175	3	0.0889038	-0.000164144
2	0	0	1	0	6711.5	0.618941	0.618505	-0.408021	3	0.0843587	-0.000252363
2	0	0	0	0	6725.05	0.551194	0.550798	-0.497653	3	0.0781411	-0.000274106
2	0	0	1	0	6738.6	0.483446	0.483034	-0.552417	3	0.0709641	-0.000266836
2	0	0	1	0	6752.15	0.415699	0.415256	-0.565405	3	0.0632983	-0.000234788
2	0	0	0	0	6765.7	0.347952	0.347498	-0.555733	3	0.0556956	-0.000193116
2	0	0	1	0	6779.25	0.280205	0.279797	-0.568339	3	0.0480705	-0.00015902
2	0	0	0	0	6792.8	0.212458	0.212023	-0.585662	3	0.0402153	-0.000124173
2	0	0	1	0	6806.35	0.144711	0.144307	-0.592477	3	0.0321914	-8.54988e-05
2	0	0	1	0	6819.9	0.076963	0.0765739	-0.590467	3	0.0241483	-4.52144e-05
2	0	0	0	0	6833.45	0.00921619	0.00884959	-0.592341	3	0.0161146	-5.24198e-06
2	1	0	1	1	6846.14	0.0544836	0.0541854	0.011617	4	0.0130697	6.29469e-07
2	1	0	0	1	6859.75	0.122539	0.122137	0.185874	4	0.0146284	2.27021e-05
2	1	0	1	1	6873.3	0.190286	0.189877	0.270836	4	0.0177983	5.14253e-05
2	1	0	1	1	6886.85	0.258033	0.25767	0.331198	4	0.0219213	8.534e-05
2	1	0	0	1	6900.4	0.32578	0.325378	0.383722	4	0.0267979	0.000124854
2	1	0	1	1	6913.95	0.393527	0.393118	0.435294	4	0.0323702	0.000171122
2	1	0	0	1	6927.5	0.461275	0.460835	0.496266	4	0.0386925	0.000228697
2	1	0	0	1	6941.05	0.529022	0.52854	0.576267	4	0.0459736	0.00030458
2	1	0	1	1	6954.59	0.596769	0.596307	0.671077	4	0.0544444	0.000400168
2	1	0	0	1	6968.14	0.664516	0.664138	0.770014	4	0.0642399	0.000511396
2	1	0	1	1	6981.69	0.732263	0.731843	0.865671	4	0.0753538	0.000633535
2	1	0	0	1	6995.06	0.799087	0.798748	0.976522	4	0.0876573	0.000779995
2	0	0	1	1	7007.93	0.736267	0.735802	0.00520191	4	0.0922623	3.82757e-06
2	0	0	0	1	7021.54	0.668212	0.667801	-0.297587	4	0.0899386	-0.000198729
2	0	0	1	1	7035.09	0.600464	0.600045	-0.437017	4	0.0848268	-0.00026223
2	0	0	1	1	7048.64	0.532717	0.532303	-0.515231	4	0.0783016	-0.000274259
2	0	0	0	1	7062.19	0.46497	0.464553	-0.5617	4	0.0709413	-0.00026094
2	0	0	1	1	7075.74	0.397223	0.396825	-0.560678	4	0.063259	-0.000222491
2	0	0	0	1	7089.29	0.329476	0.329098	-0.557131	4	0.0556864	-0.000183351
2	0	0	1	1	7102.84	0.261728	0.261354	-0.574148	4	0.0480033	-0.000150056
2	0	0	1	1	7116.39	0.193981	0.193578	-0.589639	4	0.0400803	-0.000114141
2	0	0	0	1	7129.94	0.126234	0.125898	-0.592972	4	0.0320249	-7.4654e-05
2	0	0	1	1	7143.49	0.0584869	0.0580565	-0.591007	4	0.0239769	-3.43118e-05
2	1	0	0	0	7156.11	0.00490501	0.00454876	-0.444531	5	0.0165697	-2.02206e-06
2	1	0	0	0	7169.72	0.0729603	0.0725856	0.077251	5	0.0152657	5.60731e-06
2	1	0	1	0	7183.34	0.141015	0.140613	0.213727	5	0.0173985	3.00529e-05
2	1	0	0	0	7196.88	0.208762	0.208375	0.289239	5	0.0208699	6.02701e-05
2	1	0	1	0	7210.43	0.27651	0.276097	0.346308	5	0.0252122	9.56144e-05
2	1	0	0	0	7223.98	0.344257	0.343829	0.396897	5	0.0302786	0.000136465
2	1	0	0	0	7237.53	0.412004	0.411557	0.449677	5	0.0360391	0.000185067
2	1	0	1	0	7251.08	0.479751	0.479318	0.516956	5	0.0425968	0.000247786
2	1	0	0	0	7264.63	0.547498	0.547083	0.601989	5	0.0501875	0.000329338
2	1	0	1	0	7278.18	0.615246	0.614764	0.697962	5	0.0590172	0.000429082
2	1	0	0	0	7291.73	0.682993	0.6826	0.795748	5	0.0691749	0.000543177
2	1	0	0	0	7305.28	0.75074	0.75032	0.892407	5	0.0806296	0.000669591
2	0	0	0	0	7317.91	0.785845	0.785425	0.577742	5	0.0919025	0.000453773
2	0	0	0	0	7331.58	0.717482	0.717046	-0.107083	5	0.0940527	-7.67836e-05
2	0	0	1	0	7345.13	0.649735	0.649319	-0.345334	5	0.0907404	-0.000224232
2	0	0	0	0	7358.68	0.581988	0.581544	-0.462443	5	0.0851596	-0.000268931
2	0	0	1	0	7372.23	0.514241	0.513794	-0.530219	5	0.0783693	-0.000272423
2	0	0	0	0	7385.78	0.446493	0.446076	-0.565441	5	0.0708607	-0.000252229
2	0	0	0	0	7399.33	0.378746	0.378289	-0.556955	5	0.0632045	-0.00021069
2	0	0	1	0	7412.88	0.310999	0.310587	-0.561188	5	0.0556327	-0.000174298
2	0	0	0	0	7426.42	0.243252	0.242826	-0.579721	5	0.0478771	-0.000140771
2	0	0	1	0	7439.97	0.175505	0.175144	-0.593189	5	0.0398873	-0.000103894
2	0	0	0	0	7453.52	0.107758	0.107382	-0.593706	5	0.0318108	-6.37535e-05
2	0	0	0	0	7467.07	0.04001	0.0396117	-0.591324	5	0.02376	-2.34233e-05
2	1	0	1	1	7479.7	0.0233811	0.0229875	-0.177787	6	0.0174772	-4.08688e-06
2	1	0	0	1	7493.37	0.0917446	0.0913142	0.127175	6	0.0176357	1.16129e-05
2	1	0	1	1	7506.92	0.159492	0.159108	0.238363	6	0.0202201	3.79254e-05
2	1	0	1	1	7520.47	0.227239	0.226822	0.3059	6	0.0239594	6.9385e-05
2	1	0	0	1	7534.02	0.294986	0.294572	0.360019	6	0.0285104	0.000106052
2	1	0	1	1	7547.57	0.362733	0.362296	0.410609	6	0.0337625	0.000148762
2	1	0	0	1	7561.12	0.430481	0.430049	0.466531	6	0.0397186	0.000200631
2	1	0	1	1	7574.67	0.498228	0.497826	0.53862	6	0.0465354	0.000268139
2	1	0	1	1	7588.22	0.565975	0.565522	0.627649	6	0.0544546	0.000354949
2	1	0	0	1	7601.77	0.633722	0.633309	0.725653	6	0.063647	0.000459562
2	1	0	1	1	7615.32	0.701469	0.701038	0.82063	6	0.0741567	0.000575293
2	1	0	0	1	7628.87	0.769216	0.768787	0.92034	6	0.0859628	0.000707545
2	0	0	1	1	7641.49	0.767369	0.766938	0.289252	6	0.0954143	0.000221839
2	0	0	0	1	7655.17	0.699006	0.698603	-0.19282	6	0.09545	-0.000134705
2	0	0	1	1	7668.71	0.631258	0.63088	-0.384152	6	0.0913504	-0.000242354
2	0	0	0	1	7682.26	0.563511	0.56312	-0.483357	6	0.0853739	-0.000272188
2	0	0	0	1	7695.81	0.495764	0.495306	-0.544021	6	0.078351	-0.000269457
2	0	0	1	1	7709.36	0.428017	0.427615	-0.565793	6	0.0707429	-0.000241942
2	0	0	0	1	7722.91	0.36027	0.359827	-0.554816	6	0.0631316	-0.000199638
2	0	0	1	1	7736.46	0.292523	0.292135	-0.566332	6	0.0555283	-0.000165446
2	0	0	0	1	7750.01	0.224775	0.224368	-0.585797	6	0.0476937	-0.000131434
2	0	0	0	1	7763.56	0.157028	0.156676	-0.595092	6	0.0396497	-9.32366e-05
2	0	0	1	1	7777.11	0.0892813	0.08892	-0.593138	6	0.0315627	-5.27418e-05
2	0	0	0	1	7790.66	0.0215339	0.0211102	-0.592403	6	0.0235084	-1.25058e-05
2	0	0	0	1	7794.94	0.000131913	-0.000268709	-0.594385	6	0.0209636	1.59716e-07