File: Input_data/[1] JJ1-53 1st SC total meas_02_CP.mpt
EC-Lab ASCII FILE
Nb header lines : 52

Chronopotentiometry

Run on channel : 1 (SN 31418)
User :
CE vs. WE compliance from -10 V to 10 V
Electrode connection : standard
Ewe ctrl range : min = -10.00 V, max = 10.00 V
Safety Limits :
	Do not start on E overload
Acquisition started on : 01/25/2023 15:21:28
Technique started on : 01/25/2023 15:43:54
Saved on :
	File : [1] JJ1-53 1st SC total meas_02_CP.mpr
	Directory : C:\Users\Potentiostat\Documents\EC-Lab\Data\Supercapacitor until 2021 02\(230125) SC JJ1-53 54 lower CB better viscosity\
	Host : 127.0.0.1
Device : SP-150 (SN 1275)
Address : USB
EC-Lab for windows v11.16 (software)
Internet server v11.16 (firmware)
Command interpretor v11.16 (firmware)
Electrode material : Au/Pd
Initial state :
Electrolyte : NaCl (0.2M)
Comments : Fe(CN)63-/Fe(CN)64- 5.10-3 M
Reference electrode : SCE Saturated Calomel Electrode (0.241 V)
Electrode surface area : 0.001 cm²
Characteristic mass : 0.001 g
Equivalent Weight : 0.000 g/eq.
Density : 0.000 g/cm3
Cycle Definition : Charge/Discharge alternance
Ns                  0                   1
Is                  10.000              -10.000
unit Is             mA                  mA
vs.                 <None>              <None>
ts (h:m:s)          24:00:0.0000        24:00:0.0000
EM (V)              0.800               0.000
dQM                 240.000             240.000
unit dQM            mA.h                mA.h
record              Ewe                 Ewe
dEs (mV)            1.00                1.00
dts (s)             1.0000              1.0000
E range min (V)     -10.000             -10.000
E range max (V)     10.000              10.000
I Range             10 mA               10 mA
Bandwidth           5                   5
goto Ns'            0                   0
nc cycles           0                   5

mode	ox/red	error	control changes	Ns changes	counter inc.	Ns	time/s	control/mA	Ewe/V	I/mA	dQ/C	(Q-Qo)/C	half cycle	Q charge/discharge/mA.h	Energy charge/W.h	Energy discharge/W.h	Capacitance charge/µF	Capacitance discharge/µF	Q discharge/mA.h	Q charge/mA.h	Capacity/mA.h	Efficiency/%	cycle number	P/W
1	1	0	0	0	0	0	1346.5	10	0.687123	9.89511	0.0000000E+000	0.0000000E+000	0	0.000000000000000E+000	0.000000000000000E+000	0.000000000000000E+000	0.000000000000000E+000	0.000000000000000E+000	0.000000000000000E+000	0.000000000000000E+000	0.000000000000000E+000	0	0.000000000000000E+000	0.00679916
1	1	0	0	0	0	0	1346.5	10	0.754631	9.9996	5.00005e-05	5.00005e-05	0	1.3889e-05	1.02469e-08	0.000000000000000E+000	969.988	0.000000000000000E+000	0.000000000000000E+000	1.3889e-05	1.3889e-05	0	0.000000000000000E+000	0.007546
1	1	0	0	0	0	0	1346.52	10	0.783446	10.0001	0.000160003	0.000160003	0	4.44454e-05	3.38322e-08	0.000000000000000E+000	1991	0.000000000000000E+000	0.000000000000000E+000	4.44454e-05	4.44454e-05	0	0.000000000000000E+000	0.00783455
1	0	0	1	0	0	1	1346.53	-10	0.147343	-9.9836	-1.17983e-05	0.000274209	1	-3.27731e-06	6.15972e-08	-5.54484e-10	2938.6	247.654	3.27731e-06	0.000000000000000E+000	3.27731e-06	0	0.000000000000000E+000	-0.00147101
1	0	0	1	0	0	1	1346.53	-10	0.0883554	-9.99895	-5.77714e-05	0.000228236	1	-1.60476e-05	6.15972e-08	-1.96405e-09	2938.6	540.186	1.60476e-05	0.000000000000000E+000	1.60476e-05	0	0.000000000000000E+000	-0.000883461
1	0	0	1	0	0	1	1346.54	-10	0.0547848	-10.0016	-0.000123773	0.000162234	1	-3.43815e-05	6.15972e-08	-3.22829e-09	2938.6	880.182	3.43815e-05	0.000000000000000E+000	3.43815e-05	0	0.000000000000000E+000	-0.000547937
1	0	0	1	0	0	1	1346.55	-10	0.0259309	-10.0027	-0.000227793	5.8215e-05	1	-6.32757e-05	6.15972e-08	-4.33745e-09	2938.6	1343.64	6.32757e-05	0.000000000000000E+000	6.32757e-05	0	0.000000000000000E+000	-0.000259379
1	0	0	1	0	0	1	1346.57	-10	-0.000688818	-10.0033	-0.000385834	-9.98264e-05	1	-0.000107176	6.15972e-08	-4.82313e-09	2938.6	1966.66	0.000107176	0.000000000000000E+000	0.000107176	134.903	0.000000000000000E+000	6.89045e-06
1	1	0	0	0	1	0	1346.57	10	0.70733	10	4.39533e-05	-5.58731e-05	2	1.22093e-05	8.26012e-09	-7.40691e-12	464.553	0.000000000000000E+000	0.000000000000000E+000	1.22093e-05	1.22093e-05	0	1	0.00707333
1	1	0	0	0	1	0	1346.58	10	0.741053	10.0007	9.99553e-05	1.28843e-07	2	2.77654e-05	1.95713e-08	-7.40691e-12	778.604	0.000000000000000E+000	0.000000000000000E+000	2.77654e-05	2.77654e-05	0	1	0.00741104
1	1	0	0	0	1	0	1346.59	10	0.771741	9.99954	0.00020796	0.000108133	2	5.77666e-05	4.23392e-08	-7.40691e-12	1307.19	0.000000000000000E+000	0.000000000000000E+000	5.77666e-05	5.77666e-05	0	1	0.00771705
1	1	0	0	0	1	0	1346.61	10	0.798551	10.0008	0.000389966	0.00029014	2	0.000108324	8.2136e-08	-7.40691e-12	2097.58	0.000000000000000E+000	0.000000000000000E+000	0.000108324	0.000108324	0	1	0.00798616
1	0	0	1	0	1	1	1346.61	-10	0.103899	-10.0028	-3.99683e-05	0.000268173	3	-1.11023e-05	8.61394e-08	-1.49724e-09	2170.11	454.036	1.11023e-05	0.000000000000000E+000	1.11023e-05	0	1	-0.00103929
1	0	0	1	0	1	1	1346.62	-10	0.0706917	-10.0035	-8.79844e-05	0.000220156	3	-2.44401e-05	8.61394e-08	-2.62705e-09	2170.11	725.285	2.44401e-05	0.000000000000000E+000	2.44401e-05	0	1	-0.000707167
1	0	0	1	0	1	1	1346.63	-10	0.0393935	-10.003	-0.000174014	0.000134127	3	-4.83372e-05	8.61394e-08	-3.88755e-09	2170.11	1139.93	4.83372e-05	0.000000000000000E+000	4.83372e-05	0	1	-0.000394052
1	0	0	1	0	1	1	1346.64	-10	0.00943201	-10.0033	-0.000320063	-1.19221e-05	3	-8.89064e-05	8.61394e-08	-4.79542e-09	2170.11	1752.41	8.89064e-05	0.000000000000000E+000	8.89064e-05	0	1	-9.43517e-05
1	1	0	0	0	0	0	1346.65	10	0.686745	9.99985	2.59524e-05	-5.59925e-05	4	7.20901e-06	4.76298e-09	-7.40675e-12	346.971	0.000000000000000E+000	0.000000000000000E+000	7.20901e-06	7.20901e-06	0	2	0.00686735
1	1	0	0	0	0	0	1346.66	10	0.729233	9.99998	7.59538e-05	-5.99108e-06	4	2.10983e-05	1.46582e-08	-7.40675e-12	647.258	0.000000000000000E+000	0.000000000000000E+000	2.10983e-05	2.10983e-05	0	2	0.00729232
1	1	0	0	0	0	0	1346.66	10	0.761715	10.0002	0.000163957	8.20123e-05	4	4.55437e-05	3.29479e-08	-7.40675e-12	1094.08	0.000000000000000E+000	0.000000000000000E+000	4.55437e-05	4.55437e-05	0	2	0.00761728
1	1	0	0	0	0	0	1346.68	10	0.789633	10.0003	0.000315964	0.000234019	4	8.77677e-05	6.57845e-08	-7.40675e-12	1777.15	0.000000000000000E+000	0.000000000000000E+000	8.77677e-05	8.77677e-05	0	2	0.00789657
1	0	0	1	0	0	1	1346.69	-10	0.123339	-10.0035	-2.39636e-05	0.000300059	5	-6.65656e-06	8.56827e-08	-9.99919e-10	2150.74	353.387	6.65656e-06	0.000000000000000E+000	6.65656e-06	0	2	-0.00123383
1	0	0	1	0	0	1	1346.7	-10	0.0805833	-10.0035	-6.99791e-05	0.000254044	5	-1.94386e-05	8.56827e-08	-2.25184e-09	2150.74	632.274	1.94386e-05	0.000000000000000E+000	1.94386e-05	0	2	-0.000806114
1	0	0	1	0	0	1	1346.7	-10	0.0472419	-10.0038	-0.000148006	0.000176017	5	-4.11129e-05	8.56827e-08	-3.58197e-09	2150.74	1027.29	4.11129e-05	0.000000000000000E+000	4.11129e-05	0	2	-0.000472598
1	0	0	1	0	0	1	1346.72	-10	0.018598	-10.003	-0.000268048	5.59752e-05	5	-7.44577e-05	8.56827e-08	-4.6155e-09	2150.74	1551.68	7.44577e-05	0.000000000000000E+000	7.44577e-05	0	2	-0.000186037
1	1	0	0	0	1	0	1346.73	10	0.653785	9.99973	9.95341e-06	-5.61127e-05	6	2.76484e-06	1.76616e-09	-7.41233e-12	243.366	0.000000000000000E+000	0.000000000000000E+000	2.76484e-06	2.76484e-06	0	3	0.00653767
1	1	0	0	0	1	0	1346.73	10	0.71705	10	5.59536e-05	-1.01125e-05	6	1.55427e-05	1.06364e-08	-7.41233e-12	536.637	0.000000000000000E+000	0.000000000000000E+000	1.55427e-05	1.55427e-05	0	3	0.00717053
1	1	0	0	0	1	0	1346.74	10	0.750525	9.99979	0.000125956	5.98901e-05	6	3.49879e-05	2.4961e-08	-7.41233e-12	914.2	0.000000000000000E+000	0.000000000000000E+000	3.49879e-05	3.49879e-05	0	3	0.00750509
1	1	0	0	0	1	0	1346.75	10	0.780735	10.0004	0.000255961	0.000189894	6	7.11002e-05	5.26967e-08	-7.41233e-12	1523.51	0.000000000000000E+000	0.000000000000000E+000	7.11002e-05	7.11002e-05	0	3	0.00780763
1	0	0	1	0	1	1	1346.77	-10	0.152422	-10.003	-9.95904e-06	0.000327941	7	-2.7664e-06	8.52544e-08	-4.78308e-10	2150.4	255.147	2.7664e-06	0.000000000000000E+000	2.7664e-06	0	3	-0.00152467
1	0	0	1	0	1	1	1346.77	-10	0.0903032	-10.0029	-5.59735e-05	0.000281926	7	-1.55482e-05	8.52544e-08	-1.92351e-09	2150.4	552.336	1.55482e-05	0.000000000000000E+000	1.55482e-05	0	3	-0.000903294
1	0	0	1	0	1	1	1346.78	-10	0.0569044	-10.0035	-0.000119996	0.000217904	7	-3.33321e-05	8.52544e-08	-3.18651e-09	2150.4	890.179	3.33321e-05	0.000000000000000E+000	3.33321e-05	0	3	-0.000569246
1	0	0	1	0	1	1	1346.79	-10	0.0279359	-10.003	-0.000222032	0.000115868	7	-6.16754e-05	8.52544e-08	-4.33432e-09	2150.4	1355.49	6.16754e-05	0.000000000000000E+000	6.16754e-05	0	3	-0.000279442
1	0	0	1	0	1	1	1346.81	-10	0.000170497	-10.0028	-0.000388089	-5.01893e-05	7	-0.000107803	8.52544e-08	-4.90174e-09	2150.4	2025.63	0.000107803	0.000000000000000E+000	0.000107803	0	3	-1.70546e-06
1	1	0	0	0	0	0	1346.81	10	0.705459	10.0003	4.19536e-05	-1.22371e-05	8	1.16538e-05	7.86541e-09	-7.3911e-12	449.272	0.000000000000000E+000	0.000000000000000E+000	1.16538e-05	1.16538e-05	0	4	0.0070548
1	1	0	0	0	0	0	1346.82	10	0.739106	10.0013	9.59557e-05	4.17649e-05	8	2.66544e-05	1.87427e-08	-7.3911e-12	755.143	0.000000000000000E+000	0.000000000000000E+000	2.66544e-05	2.66544e-05	0	4	0.00739198
1	1	0	0	0	0	0	1346.83	10	0.769277	10.0006	0.000195959	0.000141769	8	5.44332e-05	3.97588e-08	-7.3911e-12	1246.04	0.000000000000000E+000	0.000000000000000E+000	5.44332e-05	5.44332e-05	0	4	0.0076932
1	1	0	0	0	0	0	1346.85	10	0.79561	10.0006	0.000361966	0.000307776	8	0.000100546	7.59245e-08	-7.3911e-12	1971.37	0.000000000000000E+000	0.000000000000000E+000	0.000100546	0.000100546	0	4	0.00795654
1	0	0	1	0	0	1	1346.85	-10	0.108024	-10.0037	-3.59674e-05	0.000311811	9	-9.99093e-06	8.48009e-08	-1.37865e-09	2133.74	433.694	9.99093e-06	0.000000000000000E+000	9.99093e-06	0	4	-0.00108064
1	0	0	1	0	0	1	1346.86	-10	0.0728304	-10.0044	-8.39834e-05	0.000263795	9	-2.33287e-05	8.48009e-08	-2.54633e-09	2133.74	710.481	2.33287e-05	0.000000000000000E+000	2.33287e-05	0	4	-0.000728627
1	0	0	1	0	0	1	1346.87	-10	0.0396226	-10.0035	-0.000174015	0.000173763	9	-4.83375e-05	8.48009e-08	-3.89027e-09	2133.74	1148.9	4.83375e-05	0.000000000000000E+000	4.83375e-05	0	4	-0.000396367
1	0	0	1	0	0	1	1346.88	-10	0.0115326	-10.0029	-0.000310061	3.77167e-05	9	-8.61281e-05	8.48009e-08	-4.78821e-09	2133.74	1726.61	8.61281e-05	0.000000000000000E+000	8.61281e-05	0	4	-0.000115359
1	1	0	0	0	1	0	1346.89	10	0.680462	9.99998	2.19528e-05	-2.43596e-05	10	6.098e-06	3.99983e-09	-7.42182e-12	318.602	0.000000000000000E+000	0.000000000000000E+000	6.098e-06	6.098e-06	0	5	0.00680461
1	1	0	0	0	1	0	1346.9	10	0.724612	9.99985	6.79536e-05	2.16411e-05	10	1.8876e-05	1.30353e-08	-7.42182e-12	600.714	0.000000000000000E+000	0.000000000000000E+000	1.8876e-05	1.8876e-05	0	5	0.00724601
1	1	0	0	0	1	0	1346.9	10	0.756559	10.0012	0.000145956	9.9644e-05	10	4.05435e-05	2.91389e-08	-7.42182e-12	1005.9	0.000000000000000E+000	0.000000000000000E+000	4.05435e-05	4.05435e-05	0	5	0.00756649
1	1	0	0	0	1	0	1346.92	10	0.785986	10.0002	0.000289962	0.00024365	10	8.0545e-05	6.00807e-08	-7.42182e-12	1661.25	0.000000000000000E+000	0.000000000000000E+000	8.0545e-05	8.0545e-05	0	5	0.00786005
1	0	0	1	0	1	1	1346.93	-10	0.12987	-10.0032	-1.99621e-05	0.000337692	11	-5.54502e-06	8.52305e-08	-8.61419e-10	2135.6	325.018	5.54502e-06	0.000000000000000E+000	5.54502e-06	0	5	-0.00129911
1	0	0	1	0	1	1	1346.94	-10	0.083505	-10.0033	-6.59779e-05	0.000291676	11	-1.83272e-05	8.52305e-08	-2.16352e-09	2135.6	611.404	1.83272e-05	0.000000000000000E+000	1.83272e-05	0	5	-0.000835324
1	0	0	1	0	1	1	1346.94	-10	0.0513857	-10.0033	-0.000136002	0.000221651	11	-3.77784e-05	8.52305e-08	-3.42769e-09	2135.6	970.851	3.77784e-05	0.000000000000000E+000	3.77784e-05	0	5	-0.000514029
1	0	0	1	0	1	1	1346.96	-10	0.0224172	-10.0035	-0.000250043	0.000107611	11	-6.94564e-05	8.52305e-08	-4.53343e-09	2135.6	1478.8	6.94564e-05	0.000000000000000E+000	6.94564e-05	0	5	-0.00022425
1	0	0	1	0	1	1	1346.97	-10	-0.000364188	-10.003	-0.000394094	-3.64402e-05	11	-0.000109471	8.52305e-08	-4.91879e-09	2135.6	2053.81	0.000109471	0.000000000000000E+000	0.000109471	97.5562	5	3.64296e-06