File: Input_data/[1] JJ1-53 1st SC total meas_01_PEIS.mpt
EC-Lab ASCII FILE
Nb header lines : 62

Potentio Electrochemical Impedance Spectroscopy

Run on channel : 1 (SN 31418)
User :
CE vs. WE compliance from -10 V to 10 V
Electrode connection : standard
Ewe ctrl range : min = -10.00 V, max = 10.00 V
Safety Limits :
	Do not start on E overload
Acquisition started on : 01/25/2023 15:21:28
Technique started on : 01/25/2023 15:26:33
Saved on :
	File : [1] JJ1-53 1st SC total meas_01_PEIS.mpr
	Directory : C:\Users\Potentiostat\Documents\EC-Lab\Data\Supercapacitor until 2021 02\(230125) SC JJ1-53 54 lower CB better viscosity\
	Host : 127.0.0.1
Device : SP-150 (SN 1275)
Address : USB
EC-Lab for windows v11.16 (software)
Internet server v11.16 (firmware)
Command interpretor v11.16 (firmware)
Electrode material : Au/Pd
Initial state :
Electrolyte : NaCl (0.2M)
Comments : Fe(CN)63-/Fe(CN)64- 5.10-3 M
Reference electrode : SCE Saturated Calomel Electrode (0.241 V)
Electrode surface area : 0.001 cm²
Characteristic mass : 0.001 g
Equivalent Weight : 0.000 g/eq.
Density : 0.000 g/cm3
Cycle Definition : Charge/Discharge alternance
Mode                Single sine
E (V)               0.4000
vs.                 Ref
tE (h:m:s)          0:05:0.0000
record              0
dI                  0.000
unit dI             mA
dt (s)              0.000
fi                  1.000
unit fi             MHz
ff                  100.000
unit ff             mHz
Nd                  10
Points              per decade
spacing             Logarithmic
Va (mV)             5.0
pw                  5.00
Na                  5
corr                1
E range min (V)     -10.000
E range max (V)     10.000
I Range             Auto
Bandwidth           5
nc cycles           0
goto Ns'            0
nr cycles           0
inc. cycle          0

freq/Hz	Re(Z)/Ohm	-Im(Z)/Ohm	|Z|/Ohm	Phase(Z)/deg	time/s	<Ewe>/V	<I>/mA	Cs/µF	Cp/µF	cycle number	I Range	|Ewe|/V	|I|/A	Re(Y)/Ohm-1	Im(Y)/Ohm-1	|Y|/Ohm-1	Phase(Y)/deg
1.00002e+06	71.2381	49.0437	86.4878	-34.5454	305.183	0.40002	0.0267438	0.0032451	0.00104348	1	11	0.000429497	4.96598e-06	0.00952362	0.00655652	0.0115623	34.5454
626758	52.1278	-3.74275	52.262	4.10677	307.796	0.399473	0.0213961	-0.0678468	-0.000347969	1	11	0.00270491	5.17567e-05	0.0190852	-0.00137031	0.0191344	-4.10677
392832	32.0027	-0.747397	32.0114	1.33786	310.572	0.399691	0.0384431	-0.542078	-0.000295499	1	10	0.00458475	0.000143223	0.0312304	-0.000729361	0.0312389	-1.33786
246211	27.876	0.0733529	27.8761	-0.150768	313.186	0.399708	0.0380535	8.81243	6.1019e-05	1	10	0.00536018	0.000192286	0.0358729	9.43957e-05	0.035873	0.150768
154316	26.747	0.431838	26.7505	-0.924977	315.8	0.399719	0.0387955	2.38829	0.000622395	1	10	0.00536296	0.000200481	0.0373776	0.000603473	0.0373825	0.924977
96718.7	26.4619	0.638364	26.4696	-1.38193	318.414	0.399745	0.0386724	2.57775	0.00149928	1	10	0.00521948	0.000197187	0.0377681	0.000911112	0.0377791	1.38193
60615.2	26.4953	0.773993	26.5066	-1.67328	321.028	0.399747	0.0379603	3.39235	0.00289247	1	10	0.00506996	0.000191272	0.0377104	0.00110162	0.0377265	1.67328
37998	26.6277	0.929863	26.644	-2	323.641	0.399737	0.0382903	4.50443	0.00548631	1	10	0.00506018	0.000189918	0.0375091	0.00130985	0.0375319	2
23808.6	26.894	1.03441	26.9139	-2.20265	326.123	0.399738	0.0374868	6.4624	0.00954613	1	10	0.00509862	0.000189442	0.0371281	0.00142804	0.0371556	2.20265
14921.9	27.1583	1.06776	27.1793	-2.25149	328.473	0.399742	0.037703	9.98901	0.0154168	1	10	0.00537213	0.000197655	0.0367643	0.00144543	0.0367927	2.25149
9354.92	27.4967	1.17551	27.5218	-2.44797	330.889	0.399776	0.0393006	14.4728	0.026403	1	10	0.00548807	0.000199408	0.0363016	0.00155193	0.0363348	2.44797
5888.1	27.8208	1.22117	27.8476	-2.51333	334.401	0.399741	0.0357121	22.1345	0.0425643	1	10	0.00504763	0.000181259	0.0358752	0.00157471	0.0359097	2.51333
3676.18	28.2009	1.30402	28.231	-2.64749	338.62	0.399761	0.0363851	33.2002	0.0708359	1	10	0.00506285	0.000179336	0.0353842	0.00163617	0.035422	2.64749
2302.79	28.5954	1.45079	28.6321	-2.90442	342.842	0.399769	0.0360048	47.6389	0.12231	1	10	0.00506965	0.000177062	0.0348809	0.00176969	0.0349258	2.90442
1443.61	28.9729	1.56593	29.0152	-3.09371	347.068	0.399752	0.0360029	70.4039	0.205064	1	10	0.00506697	0.000174631	0.0344144	0.00186003	0.0344647	3.09371
905.289	29.4942	1.7783	29.5478	-3.45037	351.293	0.399759	0.0352628	98.8615	0.358087	1	10	0.00506808	0.000171522	0.0337821	0.00203683	0.0338435	3.45037
567.36	29.9549	1.88073	30.0139	-3.59262	355.754	0.399742	0.0229288	149.154	0.585655	1	11	0.0050715	0.000168971	0.0332524	0.00208776	0.0333179	3.59262
355.569	30.5345	2.04948	30.6033	-3.83994	359.975	0.399746	0.0227501	218.4	0.979504	1	11	0.00507114	0.000165706	0.0326029	0.00218831	0.0326763	3.83994
222.79	31.156	2.23894	31.2364	-4.11033	364.204	0.399744	0.0225099	319.068	1.63925	1	11	0.00506892	0.000162276	0.0319316	0.00229467	0.032014	4.11033
139.687	31.8723	2.44742	31.9661	-4.39103	368.413	0.399752	0.0226454	465.539	2.72893	1	11	0.00507186	0.000158664	0.0311913	0.00239513	0.0312832	4.39103
87.4534	32.6131	2.65524	32.721	-4.65455	372.683	0.399741	0.0222028	685.394	4.5133	1	11	0.00507043	0.00015496	0.0304606	0.00247999	0.0305614	4.65455
54.8771	33.3571	2.84275	33.478	-4.87108	376.928	0.399751	0.0220699	1020.21	7.35613	1	11	0.00506236	0.000151214	0.0297625	0.00253641	0.0298704	4.87108
34.3946	34.2262	3.07912	34.3644	-5.14072	381.256	0.399743	0.0217971	1502.8	12.0653	1	11	0.00506642	0.000147432	0.0289829	0.00260741	0.0290999	5.14072
21.5517	35.1273	3.35809	35.2874	-5.46075	385.178	0.399733	0.0216983	2199.1	19.9154	1	11	0.00506529	0.000143544	0.0282101	0.00269682	0.0283387	5.46075
13.5009	36.1324	3.69563	36.3209	-5.83991	389.381	0.399752	0.0216596	3189.85	33.0242	1	11	0.00506894	0.00013956	0.0273894	0.00280139	0.0275323	5.83991
8.45508	37.1929	4.09326	37.4174	-6.28041	393.836	0.399753	0.0215881	4598.68	55.033	1	11	0.00506993	0.000135497	0.0265651	0.00292362	0.0267255	6.28041
5.3038	38.3156	4.61049	38.592	-6.86138	400.793	0.399754	0.0211838	6508.57	92.8936	1	11	0.00506791	0.00013132	0.0257265	0.00309566	0.0259121	6.86138
3.32447	39.5732	5.27196	39.9228	-7.58829	411.763	0.399754	0.0208891	9080.84	158.354	1	11	0.00506924	0.000126976	0.024829	0.00330773	0.0250484	7.58829
2.08167	40.9485	6.15309	41.4082	-8.54556	429.155	0.399755	0.0203224	12425.6	274.365	1	11	0.00506957	0.000122429	0.0238817	0.00358856	0.0241498	8.54556
1.30687	42.471	7.40526	43.1118	-9.89069	458.046	0.399755	0.0182788	16445.4	485.216	1	12	0.00507118	0.000117629	0.0228508	0.00398427	0.0231955	9.89069
0.818491	44.2103	9.17296	45.1519	-11.7217	502.023	0.399759	0.0171541	21198.1	874.909	1	12	0.00507011	0.00011229	0.0216856	0.00449943	0.0221475	11.7217
0.512698	46.2159	11.7992	47.6983	-14.322	572.106	0.399756	0.0155632	26309	1609.92	1	12	0.00507036	0.000106301	0.0203135	0.00518618	0.0209651	14.322
0.321502	48.649	15.5796	51.0828	-17.7574	683.812	0.399754	0.0138131	31774.6	2955.59	1	12	0.00507036	9.92578e-05	0.0186434	0.00597046	0.0195761	17.7574
0.201436	51.712	21.2011	55.8893	-22.2929	861.961	0.399756	0.0118955	37266.9	5362.71	1	12	0.00507019	9.07184e-05	0.0165552	0.00678737	0.0178925	22.2929
0.126195	55.6837	29.4332	62.984	-27.86	1146.01	0.399757	0.0098542	42848.9	9357.37	1	12	0.0050689	8.04792e-05	0.0140368	0.00741954	0.015877	27.86
0.0999105	58.1621	34.8532	67.8054	-30.9318	1346.38	0.399751	0.00882123	45705.3	12076	1	12	0.0050695	7.47654e-05	0.0126506	0.00758078	0.0147481	30.9318