File: Input_data/[1] JJ1-53 1st SC total meas_03_CP.mpt
EC-Lab ASCII FILE
Nb header lines : 52

Chronopotentiometry

Run on channel : 1 (SN 31418)
User :
CE vs. WE compliance from -10 V to 10 V
Electrode connection : standard
Ewe ctrl range : min = -10.00 V, max = 10.00 V
Safety Limits :
	Do not start on E overload
Acquisition started on : 01/25/2023 15:21:28
Technique started on : 01/25/2023 15:43:55
Saved on :
	File : [1] JJ1-53 1st SC total meas_03_CP.mpr
	Directory : C:\Users\Potentiostat\Documents\EC-Lab\Data\Supercapacitor until 2021 02\(230125) SC JJ1-53 54 lower CB better viscosity\
	Host : 127.0.0.1
Device : SP-150 (SN 1275)
Address : USB
EC-Lab for windows v11.16 (software)
Internet server v11.16 (firmware)
Command interpretor v11.16 (firmware)
Electrode material : Au/Pd
Initial state :
Electrolyte : NaCl (0.2M)
Comments : Fe(CN)63-/Fe(CN)64- 5.10-3 M
Reference electrode : SCE Saturated Calomel Electrode (0.241 V)
Electrode surface area : 0.001 cm²
Characteristic mass : 0.001 g
Equivalent Weight : 0.000 g/eq.
Density : 0.000 g/cm3
Cycle Definition : Charge/Discharge alternance
Ns                  0                   1
Is                  5.000               -5.000
unit Is             mA                  mA
vs.                 <None>              <None>
ts (h:m:s)          24:00:0.0000        24:00:0.0000
EM (V)              0.800               0.000
dQM                 120.000             120.000
unit dQM            mA.h                mA.h
record              Ewe                 Ewe
dEs (mV)            1.00                1.00
dts (s)             1.0000              1.0000
E range min (V)     -10.000             -10.000
E range max (V)     10.000              10.000
I Range             10 mA               10 mA
Bandwidth           5                   5
goto Ns'            0                   0
nc cycles           0                   5

mode	ox/red	error	control changes	Ns changes	counter inc.	Ns	time/s	control/mA	Ewe/V	I/mA	dQ/C	(Q-Qo)/C	half cycle	Q charge/discharge/mA.h	Energy charge/W.h	Energy discharge/W.h	Capacitance charge/µF	Capacitance discharge/µF	Q discharge/mA.h	Q charge/mA.h	Capacity/mA.h	Efficiency/%	cycle number	P/W
1	1	0	0	0	0	0	1347.07	5	0.535865	4.94799	0.0000000E+000	0.0000000E+000	0	0.000000000000000E+000	0.000000000000000E+000	0.000000000000000E+000	0.000000000000000E+000	0.000000000000000E+000	0.000000000000000E+000	0.000000000000000E+000	0.000000000000000E+000	0	0.000000000000000E+000	0.00265145
1	1	0	0	0	0	0	1347.35	5	0.65875	5.00023	0.00140689	0.00140689	0	0.000390802	2.45873e-07	0.000000000000000E+000	12248.1	0.000000000000000E+000	0.000000000000000E+000	0.000390802	0.000390802	0	0.000000000000000E+000	0.0032939
1	1	0	0	0	0	0	1348.41	5	0.760359	4.99979	0.00670345	0.00670345	0	0.00186207	1.29958e-06	0.000000000000000E+000	30966.5	0.000000000000000E+000	0.000000000000000E+000	0.00186207	0.00186207	0	0.000000000000000E+000	0.00380163
1	0	0	1	0	0	1	1349.07	-5	0.412451	-5.00162	-0.000169056	0.00967513	1	-4.69601e-05	1.9813e-06	-2.0419e-08	38450.6	1930.9	4.69601e-05	0.000000000000000E+000	4.69601e-05	0	0.000000000000000E+000	-0.00206292
1	0	0	1	0	0	1	1349.42	-5	0.308016	-5.00315	-0.00187487	0.00796932	1	-0.000520798	1.9813e-06	-1.85441e-07	38450.6	9765.09	0.000520798	0.000000000000000E+000	0.000520798	0	0.000000000000000E+000	-0.00154105
1	0	0	1	0	0	1	1350.1	-5	0.205566	-5.00232	-0.00530051	0.00454368	1	-0.00147236	1.9813e-06	-4.26296e-07	38450.6	18001.5	0.00147236	0.000000000000000E+000	0.00147236	0	0.000000000000000E+000	-0.00102831
1	0	0	1	0	0	1	1350.99	-5	0.102811	-5.00207	-0.00972963	0.000114563	1	-0.00270267	1.9813e-06	-6.13383e-07	38450.6	24495.3	0.00270267	0.000000000000000E+000	0.00270267	0	0.000000000000000E+000	-0.000514268
1	0	0	1	0	0	1	1352.03	-5	0.00076247	-5.0029	-0.0149391	-0.0050949	1	-0.00414975	1.9813e-06	-6.85785e-07	38450.6	29922.9	0.00414975	0.000000000000000E+000	0.00414975	0	0.000000000000000E+000	-3.81456e-06
1	1	0	0	0	1	0	1352.11	5	0.445659	4.99979	0.000386945	-0.00475498	2	0.000107485	4.43145e-08	-1.76774e-12	2785.39	0.000000000000000E+000	0.000000000000000E+000	0.000107485	0.000107485	0	1	0.0022282
1	1	0	0	0	1	0	1352.48	5	0.550247	4.99896	0.0022348	-0.00290712	2	0.000620778	3.04574e-07	-1.76774e-12	9177.32	0.000000000000000E+000	0.000000000000000E+000	0.000620778	0.000620778	0	1	0.00275066
1	1	0	0	0	1	0	1353.21	5	0.65241	4.99889	0.00583952	0.000697598	2	0.00162209	9.11484e-07	-1.76774e-12	16893	0.000000000000000E+000	0.000000000000000E+000	0.00162209	0.00162209	0	1	0.00326133
1	1	0	0	0	1	0	1354.37	5	0.754611	4.99953	0.0116751	0.00653318	2	0.00324308	2.05912e-06	-1.76774e-12	26067.5	0.000000000000000E+000	0.000000000000000E+000	0.00324308	0.00324308	0	1	0.0037727
1	0	0	1	0	1	1	1355.12	-5	0.419326	-5.00258	-0.000130041	0.0100079	3	-3.61224e-05	2.83879e-06	-1.59125e-08	30982.6	1615.36	3.61224e-05	0.000000000000000E+000	3.61224e-05	0	1	-0.00209771
1	0	0	1	0	1	1	1355.44	-5	0.314355	-5.00201	-0.00171379	0.00842413	3	-0.000476052	2.83879e-06	-1.71544e-07	30982.6	9239.01	0.000476052	0.000000000000000E+000	0.000476052	0	1	-0.00157241
1	0	0	1	0	1	1	1356.11	-5	0.211581	-5.00277	-0.00508837	0.00504955	3	-0.00141344	2.83879e-06	-4.14454e-07	30982.6	17651.4	0.00141344	0.000000000000000E+000	0.00141344	0	1	-0.00105849
1	0	0	1	0	1	1	1356.98	-5	0.109934	-5.00213	-0.00942644	0.000711484	3	-0.00261845	2.83879e-06	-6.05687e-07	30982.6	24175.4	0.00261845	0.000000000000000E+000	0.00261845	0	1	-0.000549903
1	0	0	1	0	1	1	1358.01	-5	0.00777067	-5.00162	-0.0145789	-0.00444099	3	-0.0040497	2.83879e-06	-6.87315e-07	30982.6	29627	0.0040497	0.000000000000000E+000	0.0040497	0	1	-3.8866e-05
1	1	0	0	0	0	0	1358.16	5	0.438727	4.99851	0.000329948	-0.00453825	4	9.16524e-05	3.72864e-08	-1.73156e-12	2507.47	0.000000000000000E+000	0.000000000000000E+000	9.16524e-05	9.16524e-05	0	2	0.00219298
1	1	0	0	0	0	0	1358.51	5	0.543774	5.00017	0.00208181	-0.00278638	4	0.00057828	2.81097e-07	-1.73156e-12	8797.42	0.000000000000000E+000	0.000000000000000E+000	0.00057828	0.00057828	0	2	0.00271896
1	1	0	0	0	0	0	1359.22	5	0.646758	4.99985	0.00563155	0.000763355	4	0.00156432	8.72999e-07	-1.73156e-12	16581.7	0.000000000000000E+000	0.000000000000000E+000	0.00156432	0.00156432	0	2	0.00323369
1	1	0	0	0	0	0	1360.36	5	0.749265	4.99909	0.0113311	0.00646293	4	0.00314753	1.98518e-06	-1.73156e-12	25628.4	0.000000000000000E+000	0.000000000000000E+000	0.00314753	0.00314753	0	2	0.00374564
1	0	0	1	0	0	1	1361.18	-5	0.423221	-5.00207	-0.000112029	0.0103096	5	-3.11194e-05	2.83869e-06	-1.38034e-08	31029.3	1474.79	3.11194e-05	0.000000000000000E+000	3.11194e-05	0	2	-0.00211698
1	0	0	1	0	0	1	1361.49	-5	0.316093	-5.00232	-0.00167577	0.00874586	5	-0.000465492	2.83869e-06	-1.68218e-07	31029.3	9151.45	0.000465492	0.000000000000000E+000	0.000465492	0	2	-0.0015812
1	0	0	1	0	0	1	1362.16	-5	0.213262	-5.00264	-0.00503936	0.00538227	5	-0.00139982	2.83869e-06	-4.11846e-07	31029.3	17623.3	0.00139982	0.000000000000000E+000	0.00139982	0	2	-0.00106687
1	0	0	1	0	0	1	1363.04	-5	0.110793	-5.00252	-0.00941844	0.00100319	5	-0.00261623	2.83869e-06	-6.06409e-07	31029.3	24248.2	0.00261623	0.000000000000000E+000	0.00261623	0	2	-0.000554244
1	0	0	1	0	0	1	1364.07	-5	0.00801891	-5.0029	-0.0145969	-0.00417528	5	-0.0040547	2.83869e-06	-6.89286e-07	31029.3	29717.3	0.0040547	0.000000000000000E+000	0.0040547	0	2	-4.01178e-05
1	1	0	0	0	1	0	1364.22	5	0.437849	5.00004	0.000321953	-0.00429753	6	8.94314e-05	3.63106e-08	-1.7653e-12	2461.65	0.000000000000000E+000	0.000000000000000E+000	8.94314e-05	8.94314e-05	0	3	0.00218926
1	1	0	0	0	1	0	1364.58	5	0.543392	4.99921	0.00207982	-0.00253967	6	0.000577727	2.8074e-07	-1.7653e-12	8800.21	0.000000000000000E+000	0.000000000000000E+000	0.000577727	0.000577727	0	3	0.00271653
1	1	0	0	0	1	0	1365.28	5	0.645975	5.00004	0.00560955	0.000990062	6	0.00155821	8.68686e-07	-1.7653e-12	16551.2	0.000000000000000E+000	0.000000000000000E+000	0.00155821	0.00155821	0	3	0.0032299
1	1	0	0	0	1	0	1366.41	5	0.748253	4.99953	0.0112711	0.00665164	6	0.00313087	1.97181e-06	-1.7653e-12	25546.6	0.000000000000000E+000	0.000000000000000E+000	0.00313087	0.00313087	0	3	0.00374091
1	0	0	1	0	1	1	1367.24	-5	0.424042	-5.00232	-0.000108029	0.0105633	7	-3.0008e-05	2.83794e-06	-1.33332e-08	31021.5	1428.52	3.0008e-05	0.000000000000000E+000	3.0008e-05	0	3	-0.0021212
1	0	0	1	0	1	1	1367.54	-5	0.318958	-5.00232	-0.00160373	0.00906761	7	-0.000445481	2.83794e-06	-1.61921e-07	31021.5	8873.54	0.000445481	0.000000000000000E+000	0.000445481	0	3	-0.00159553
1	0	0	1	0	1	1	1368.2	-5	0.216642	-5.00226	-0.00492831	0.00574303	7	-0.00136897	2.83794e-06	-4.05533e-07	31021.5	17411.4	0.00136897	0.000000000000000E+000	0.00136897	0	3	-0.0010837
1	0	0	1	0	1	1	1369.07	-5	0.114479	-5.00213	-0.00927336	0.00139798	7	-0.00257593	2.83794e-06	-6.02754e-07	31021.5	24073.3	0.00257593	0.000000000000000E+000	0.00257593	0	3	-0.000572637
1	0	0	1	0	1	1	1370.09	-5	0.0127356	-5.00201	-0.0143708	-0.00369942	7	-0.00399188	2.83794e-06	-6.90281e-07	31021.5	29511.3	0.00399188	0.000000000000000E+000	0.00399188	0	3	-6.37036e-05
1	1	0	0	0	0	0	1370.29	5	0.432483	4.99953	0.000281951	-0.0041118	8	7.83197e-05	3.14691e-08	-1.72678e-12	2243.73	0.000000000000000E+000	0.000000000000000E+000	7.83197e-05	7.83197e-05	0	4	0.00216221
1	1	0	0	0	0	0	1370.61	5	0.536785	4.9994	0.00191484	-0.00247891	8	0.0005319	2.55944e-07	-1.72678e-12	8326.46	0.000000000000000E+000	0.000000000000000E+000	0.0005319	0.0005319	0	4	0.0026836
1	1	0	0	0	0	0	1371.3	5	0.639062	5.0001	0.0053216	0.000927844	8	0.00147822	8.17056e-07	-1.72678e-12	16016.9	0.000000000000000E+000	0.000000000000000E+000	0.00147822	0.00147822	0	4	0.00319538
1	1	0	0	0	0	0	1372.38	5	0.740519	4.99979	0.0107582	0.00636447	8	0.00298839	1.86514e-06	-1.72678e-12	24805.3	0.000000000000000E+000	0.000000000000000E+000	0.00298839	0.00298839	0	4	0.00370244
1	0	0	1	0	0	1	1373.3	-5	0.433304	-5.00264	-7.30118e-05	0.0108171	9	-2.02811e-05	2.83582e-06	-9.16946e-09	30986.3	1107.05	2.02811e-05	0.000000000000000E+000	2.02811e-05	0	4	-0.00216766
1	0	0	1	0	0	1	1373.57	-5	0.326863	-5.00315	-0.00141364	0.00947652	9	-0.000392678	2.83582e-06	-1.4489e-07	30986.3	8198.59	0.000392678	0.000000000000000E+000	0.000392678	0	4	-0.00163535
1	0	0	1	0	0	1	1374.22	-5	0.224089	-5.00239	-0.00465316	0.006237	9	-0.00129254	2.83582e-06	-3.88846e-07	30986.3	16908.2	0.00129254	0.000000000000000E+000	0.00129254	0	4	-0.00112098
1	0	0	1	0	0	1	1375.08	-5	0.121659	-5.00283	-0.00895321	0.00193695	9	-0.002487	2.83582e-06	-5.92747e-07	30986.3	23708.8	0.002487	0.000000000000000E+000	0.002487	0	4	-0.000608638
1	0	0	1	0	0	1	1376.09	-5	0.0198202	-5.00271	-0.0140086	-0.00311845	9	-0.00389128	2.83582e-06	-6.89577e-07	30986.3	29216.8	0.00389128	0.000000000000000E+000	0.00389128	0	4	-9.91546e-05
1	1	0	0	0	1	0	1376.35	5	0.424768	4.99928	0.000229959	-0.003968	10	6.38775e-05	2.52597e-08	-1.72678e-12	1948.38	0.000000000000000E+000	0.000000000000000E+000	6.38775e-05	6.38775e-05	0	5	0.00212353
1	1	0	0	0	1	0	1376.65	5	0.529318	4.99991	0.00173983	-0.00245813	10	0.000483286	2.2991e-07	-1.72678e-12	7816.51	0.000000000000000E+000	0.000000000000000E+000	0.000483286	0.000483286	0	5	0.00264654
1	1	0	0	0	1	0	1377.31	5	0.631538	4.9996	0.00502858	0.000830615	10	0.00139683	7.64945e-07	-1.72678e-12	15481.8	0.000000000000000E+000	0.000000000000000E+000	0.00139683	0.00139683	0	5	0.00315744
1	1	0	0	0	1	0	1378.38	5	0.734332	4.99979	0.0103722	0.00617419	10	0.00288115	1.78521e-06	-1.72678e-12	24256.7	0.000000000000000E+000	0.000000000000000E+000	0.00288115	0.00288115	0	5	0.0036715
1	0	0	1	0	1	1	1379.37	-5	0.440045	-5.00245	-5.40045e-05	0.0110338	11	-1.50013e-05	2.8352e-06	-6.86528e-09	30994.7	915.919	1.50013e-05	0.000000000000000E+000	1.50013e-05	0	5	-0.0022013
1	0	0	1	0	1	1	1379.61	-5	0.333719	-5.00245	-0.00125657	0.00983125	11	-0.000349048	2.8352e-06	-1.30496e-07	30994.7	7600.46	0.000349048	0.000000000000000E+000	0.000349048	0	5	-0.00166941
1	0	0	1	0	1	1	1380.24	-5	0.231059	-5.00264	-0.00439806	0.00668976	11	-0.00122168	2.8352e-06	-3.72817e-07	30994.7	16411.2	0.00122168	0.000000000000000E+000	0.00122168	0	5	-0.00115591
1	0	0	1	0	1	1	1381.09	-5	0.128419	-5.00303	-0.00865507	0.00243275	11	-0.00240419	2.8352e-06	-5.827e-07	30994.7	23352.2	0.00240419	0.000000000000000E+000	0.00240419	0	5	-0.000642481
1	0	0	1	0	1	1	1382.09	-5	0.0269048	-5.00194	-0.0136435	-0.00255563	11	-0.00378985	2.8352e-06	-6.87802e-07	30994.7	28896.7	0.00378985	0.000000000000000E+000	0.00378985	0	5	-0.000134576
1	0	0	1	0	1	1	1382.38	-5	3.68259e-05	-5.00239	-0.0150941	-0.00400632	11	-0.00419282	2.8352e-06	-6.92955e-07	30994.7	30247.9	0.00419282	0.000000000000000E+000	0.00419282	98.7463	5	-1.84217e-07