File: Input_data/[1] JJ1-53 1st SC total meas_06_CP.mpt
EC-Lab ASCII FILE
Nb header lines : 52

Chronopotentiometry

Run on channel : 1 (SN 31418)
User :
CE vs. WE compliance from -10 V to 10 V
Electrode connection : standard
Ewe ctrl range : min = -10.00 V, max = 10.00 V
Safety Limits :
	Do not start on E overload
Acquisition started on : 01/25/2023 15:21:28
Technique started on : 01/25/2023 16:02:15
Saved on :
	File : [1] JJ1-53 1st SC total meas_06_CP.mpr
	Directory : C:\Users\Potentiostat\Documents\EC-Lab\Data\Supercapacitor until 2021 02\(230125) SC JJ1-53 54 lower CB better viscosity\
	Host : 127.0.0.1
Device : SP-150 (SN 1275)
Address : USB
EC-Lab for windows v11.16 (software)
Internet server v11.16 (firmware)
Command interpretor v11.16 (firmware)
Electrode material : Au/Pd
Initial state :
Electrolyte : NaCl (0.2M)
Comments : Fe(CN)63-/Fe(CN)64- 5.10-3 M
Reference electrode : SCE Saturated Calomel Electrode (0.241 V)
Electrode surface area : 0.001 cm²
Characteristic mass : 0.001 g
Equivalent Weight : 0.000 g/eq.
Density : 0.000 g/cm3
Cycle Definition : Charge/Discharge alternance
Ns                  0                   1
Is                  0.500               -0.500
unit Is             mA                  mA
vs.                 <None>              <None>
ts (h:m:s)          24:00:0.0000        24:00:0.0000
EM (V)              0.800               0.000
dQM                 12.000              12.000
unit dQM            mA.h                mA.h
record              Ewe                 Ewe
dEs (mV)            1.00                1.00
dts (s)             1.0000              1.0000
E range min (V)     -10.000             -10.000
E range max (V)     10.000              10.000
I Range             10 mA               10 mA
Bandwidth           5                   5
goto Ns'            0                   0
nc cycles           0                   2

mode	ox/red	error	control changes	Ns changes	counter inc.	Ns	time/s	control/mA	Ewe/V	I/mA	dQ/C	(Q-Qo)/C	half cycle	Q charge/discharge/mA.h	Energy charge/W.h	Energy discharge/W.h	Capacitance charge/µF	Capacitance discharge/µF	Q discharge/mA.h	Q charge/mA.h	Capacity/mA.h	Efficiency/%	cycle number	P/W
1	1	0	0	0	0	0	2447.49	0.5	0.0617987	0.494125	0.0000000E+000	0.0000000E+000	0	0.000000000000000E+000	0.000000000000000E+000	0.000000000000000E+000	0.000000000000000E+000	0.000000000000000E+000	0.000000000000000E+000	0.000000000000000E+000	0.000000000000000E+000	0	0.000000000000000E+000	3.05363e-05
1	1	0	0	0	0	0	2451.05	0.5	0.152479	0.498585	0.0017798	0.0017798	0	0.000494389	5.9226e-08	0.000000000000000E+000	19847.4	0.000000000000000E+000	0.000000000000000E+000	0.000494389	0.000494389	0	0.000000000000000E+000	7.60239e-05
1	1	0	0	0	0	0	2458.93	0.5	0.242478	0.497565	0.00570805	0.00570805	0	0.00158557	2.79112e-07	0.000000000000000E+000	31769	0.000000000000000E+000	0.000000000000000E+000	0.00158557	0.00158557	0	0.000000000000000E+000	0.000120649
1	1	0	0	0	0	0	2470.15	0.5	0.331733	0.498648	0.0112989	0.0112989	0	0.00313859	7.29126e-07	0.000000000000000E+000	42014.7	0.000000000000000E+000	0.000000000000000E+000	0.00313859	0.00313859	0	0.000000000000000E+000	0.000165418
1	1	0	0	0	0	0	2484.77	0.5	0.421388	0.499094	0.0185896	0.0185896	0	0.00516377	1.49618e-06	0.000000000000000E+000	51841.8	0.000000000000000E+000	0.000000000000000E+000	0.00516377	0.00516377	0	0.000000000000000E+000	0.000210312
1	1	0	0	0	0	0	2503.11	0.5	0.511215	0.498712	0.0277339	0.0277339	0	0.00770385	2.68639e-06	0.000000000000000E+000	61849.4	0.000000000000000E+000	0.000000000000000E+000	0.00770385	0.00770385	0	0.000000000000000E+000	0.000254949
1	1	0	0	0	0	0	2526.74	0.5	0.600947	0.498903	0.039517	0.039517	0	0.0109769	4.51474e-06	0.000000000000000E+000	73432.3	0.000000000000000E+000	0.000000000000000E+000	0.0109769	0.0109769	0	0.000000000000000E+000	0.000299814
1	1	0	0	0	0	0	2558.02	0.5	0.690392	0.498202	0.0551089	0.0551089	0	0.015308	7.32278e-06	0.000000000000000E+000	87810.8	0.000000000000000E+000	0.000000000000000E+000	0.015308	0.015308	0	0.000000000000000E+000	0.000343955
1	1	0	0	0	0	0	2602.17	0.5	0.779665	0.499158	0.0771211	0.0771211	0	0.0214225	1.18393e-05	0.000000000000000E+000	107582	0.000000000000000E+000	0.000000000000000E+000	0.0214225	0.0214225	0	0.000000000000000E+000	0.000389176
1	0	0	1	0	0	1	2620.76	-0.5	0.702021	-0.503226	-0.00270821	0.080998	1	-0.000752281	1.32853e-05	-5.45224e-07	113573	39715.9	0.000752281	0.000000000000000E+000	0.000752281	0	0.000000000000000E+000	-0.000353275
1	0	0	1	0	0	1	2636.92	-0.5	0.612442	-0.502588	-0.0108292	0.072877	1	-0.00300811	1.32853e-05	-2.01983e-06	113573	68639.9	0.00300811	0.000000000000000E+000	0.00300811	0	0.000000000000000E+000	-0.000307806
1	0	0	1	0	0	1	2657.96	-0.5	0.522749	-0.503226	-0.0214015	0.0623046	1	-0.00594487	1.32853e-05	-3.68155e-06	113573	86484.1	0.00594487	0.000000000000000E+000	0.00594487	0	0.000000000000000E+000	-0.000263061
1	0	0	1	0	0	1	2681.09	-0.5	0.433017	-0.50176	-0.0330224	0.0506838	1	-0.00917289	1.32853e-05	-5.22239e-06	113573	97933	0.00917289	0.000000000000000E+000	0.00917289	0	0.000000000000000E+000	-0.000217271
1	0	0	1	0	0	1	2702.49	-0.5	0.343687	-0.503034	-0.0437766	0.0399295	1	-0.0121602	1.32853e-05	-6.38288e-06	113573	102636	0.0121602	0.000000000000000E+000	0.0121602	0	0.000000000000000E+000	-0.000172886
1	0	0	1	0	0	1	2723.17	-0.5	0.25407	-0.502397	-0.054171	0.0295352	1	-0.0150475	1.32853e-05	-7.24426e-06	113573	104954	0.0150475	0.000000000000000E+000	0.0150475	0	0.000000000000000E+000	-0.000127644
1	0	0	1	0	0	1	2743.75	-0.5	0.164243	-0.502397	-0.0645125	0.0191937	1	-0.0179201	1.32853e-05	-7.84386e-06	113573	106462	0.0179201	0.000000000000000E+000	0.0179201	0	0.000000000000000E+000	-8.2515e-05
1	0	0	1	0	0	1	2764.29	-0.5	0.0749119	-0.502397	-0.074832	0.00887413	1	-0.0207867	1.32853e-05	-8.18474e-06	113573	107626	0.0207867	0.000000000000000E+000	0.0207867	0	0.000000000000000E+000	-3.76355e-05
1	1	0	0	0	1	0	2782.18	0.5	0.0445303	0.498457	2.53264e-05	-6.43296e-05	2	7.03512e-06	2.92076e-10	-2.3781e-14	1894.74	0.000000000000000E+000	0.000000000000000E+000	7.03512e-06	7.03512e-06	0	1	2.21964e-05
1	1	0	0	0	1	0	2787.67	0.5	0.134529	0.498648	0.00275957	0.00266991	2	0.000766547	7.54211e-08	-2.3781e-14	26696.8	0.000000000000000E+000	0.000000000000000E+000	0.000766547	0.000766547	0	1	6.70828e-05
1	1	0	0	0	1	0	2797.42	0.5	0.22407	0.498202	0.00762093	0.00753127	2	0.00211692	3.21484e-07	-2.3781e-14	39505.5	0.000000000000000E+000	0.000000000000000E+000	0.00211692	0.00211692	0	1	0.000111632
1	1	0	0	0	1	0	2810.15	0.5	0.314126	0.498648	0.0139708	0.0138812	2	0.00388079	7.99952e-07	-2.3781e-14	49373.2	0.000000000000000E+000	0.000000000000000E+000	0.00388079	0.00388079	0	1	0.000156639
1	1	0	0	0	1	0	2825.81	0.5	0.404335	0.499413	0.0217787	0.0216891	2	0.00604965	1.58338e-06	-2.3781e-14	58360.9	0.000000000000000E+000	0.000000000000000E+000	0.00604965	0.00604965	0	1	0.00020193
1	1	0	0	0	1	0	2844.77	0.5	0.494296	0.498457	0.0312322	0.0311425	2	0.00867561	2.7687e-06	-2.3781e-14	67436.6	0.000000000000000E+000	0.000000000000000E+000	0.00867561	0.00867561	0	1	0.000246385
1	1	0	0	0	1	0	2868.48	0.5	0.583875	0.498394	0.0430528	0.0429631	2	0.0119591	4.5467e-06	-2.3781e-14	77893.6	0.000000000000000E+000	0.000000000000000E+000	0.0119591	0.0119591	0	1	0.000291
1	1	0	0	0	1	0	2899.43	0.5	0.673435	0.499286	0.0584853	0.0583956	2	0.0162459	7.25234e-06	-2.3781e-14	91059.9	0.000000000000000E+000	0.000000000000000E+000	0.0162459	0.0162459	0	1	0.000336236
1	1	0	0	0	1	0	2940.4	0.5	0.763052	0.499222	0.0789101	0.0788205	2	0.0219195	1.13442e-05	-2.3781e-14	107817	0.000000000000000E+000	0.000000000000000E+000	0.0219195	0.0219195	0	1	0.000380932
1	0	0	1	0	1	1	2965.55	-0.5	0.719227	-0.503098	-0.00157719	0.0882187	3	-0.000438107	1.37302e-05	-3.22019e-07	116957	30741.4	0.000438107	0.000000000000000E+000	0.000438107	0	1	-0.000361842
1	0	0	1	0	1	1	2980.24	-0.5	0.629724	-0.50227	-0.00895752	0.0808384	3	-0.0024882	1.37302e-05	-1.69589e-06	116957	63615.4	0.0024882	0.000000000000000E+000	0.0024882	0	1	-0.000316292
1	0	0	1	0	1	1	3000.41	-0.5	0.540069	-0.503034	-0.0190959	0.0707	3	-0.00530442	1.37302e-05	-3.33758e-06	116957	82859	0.00530442	0.000000000000000E+000	0.00530442	0	1	-0.000271673
1	0	0	1	0	1	1	3023.22	-0.5	0.45049	-0.502079	-0.0305593	0.0592366	3	-0.00848869	1.37302e-05	-4.91185e-06	116957	95485.3	0.00848869	0.000000000000000E+000	0.00848869	0	1	-0.000226182
1	0	0	1	0	1	1	3044.87	-0.5	0.361064	-0.50278	-0.0414365	0.0483594	3	-0.0115101	1.37302e-05	-6.13876e-06	116957	101196	0.0115101	0.000000000000000E+000	0.0115101	0	1	-0.000181536
1	0	0	1	0	1	1	3065.76	-0.5	0.271256	-0.502588	-0.0519349	0.0378609	3	-0.0144264	1.37302e-05	-7.05901e-06	116957	104021	0.0144264	0.000000000000000E+000	0.0144264	0	1	-0.00013633
1	0	0	1	0	1	1	3086.53	-0.5	0.181696	-0.502142	-0.0623719	0.0274239	3	-0.0173255	1.37302e-05	-7.71432e-06	116957	105924	0.0173255	0.000000000000000E+000	0.0173255	0	1	-9.12374e-05
1	0	0	1	0	1	1	3107.24	-0.5	0.09227	-0.50227	-0.0727803	0.0170156	3	-0.0202167	1.37302e-05	-8.10863e-06	116957	107304	0.0202167	0.000000000000000E+000	0.0202167	0	1	-4.63445e-05
1	0	0	1	0	1	1	3128.68	-0.5	0.00253839	-0.503098	-0.0835511	0.00624475	3	-0.0232086	1.37302e-05	-8.24789e-06	116957	108791	0.0232086	0.000000000000000E+000	0.0232086	0	1	-1.27706e-06
1	1	0	0	0	0	0	3133.34	0.5	0.117228	0.498585	0.00200754	0.00793179	4	0.00055765	4.90549e-08	-2.63277e-14	23217.4	0.000000000000000E+000	0.000000000000000E+000	0.00055765	0.00055765	0	2	5.84483e-05
1	1	0	0	0	0	0	3142.44	0.5	0.206845	0.497756	0.00654211	0.0124664	4	0.00181725	2.57315e-07	-2.63277e-14	37153.3	0.000000000000000E+000	0.000000000000000E+000	0.00181725	0.00181725	0	2	0.000102959
1	1	0	0	0	0	0	3154.59	0.5	0.297188	0.498457	0.012602	0.0185262	4	0.00350055	6.85501e-07	-2.63277e-14	47300	0.000000000000000E+000	0.000000000000000E+000	0.00350055	0.00350055	0	2	0.000148136
1	1	0	0	0	0	0	3169.55	0.5	0.387015	0.499349	0.0200596	0.0259839	4	0.00557211	1.39846e-06	-2.63277e-14	56307	0.000000000000000E+000	0.000000000000000E+000	0.00557211	0.00557211	0	2	0.000193256
1	1	0	0	0	0	0	3187.66	0.5	0.476594	0.498457	0.0290878	0.0350121	4	0.00807995	2.48634e-06	-2.63277e-14	65243.7	0.000000000000000E+000	0.000000000000000E+000	0.00807995	0.00807995	0	2	0.000237562
1	1	0	0	0	0	0	3210.27	0.5	0.566192	0.498712	0.0403596	0.0462839	4	0.011211	4.12609e-06	-2.63277e-14	75377.8	0.000000000000000E+000	0.000000000000000E+000	0.011211	0.011211	0	2	0.000282367
1	1	0	0	0	0	0	3239.98	0.5	0.656229	0.497502	0.0551736	0.0610979	4	0.015326	6.65145e-06	-2.63277e-14	88211.7	0.000000000000000E+000	0.000000000000000E+000	0.015326	0.015326	0	2	0.000326475
1	1	0	0	0	0	0	3278.26	0.5	0.745866	0.498967	0.0742583	0.0801825	4	0.0206273	1.03809e-05	-2.63277e-14	103843	0.000000000000000E+000	0.000000000000000E+000	0.0206273	0.0206273	0	2	0.000372162
1	0	0	1	0	0	1	3310.03	-0.5	0.736031	-0.502015	-0.000703845	0.0946217	5	-0.000195512	1.36392e-05	-1.4571e-07	116258	20496.2	0.000195512	0.000000000000000E+000	0.000195512	0	2	-0.000369499
1	0	0	1	0	0	1	3323.2	-0.5	0.646109	-0.502716	-0.00732394	0.0880016	5	-0.00203443	1.36392e-05	-1.40635e-06	116258	58939.1	0.00203443	0.000000000000000E+000	0.00203443	0	2	-0.000324809
1	0	0	1	0	0	1	3342.53	-0.5	0.556491	-0.502525	-0.0170374	0.0782881	5	-0.00473261	1.36392e-05	-3.023e-06	116258	79658.8	0.00473261	0.000000000000000E+000	0.00473261	0	2	-0.000279651
1	0	0	1	0	0	1	3364.94	-0.5	0.467123	-0.502971	-0.0282962	0.0670293	5	-0.00786006	1.36392e-05	-4.62009e-06	116258	93310.2	0.00786006	0.000000000000000E+000	0.00786006	0	2	-0.000234949
1	0	0	1	0	0	1	3386.95	-0.5	0.377257	-0.502206	-0.0393555	0.05597	5	-0.0109321	1.36392e-05	-5.91798e-06	116258	100112	0.0109321	0.000000000000000E+000	0.0109321	0	2	-0.000189461
1	0	0	1	0	0	1	3407.88	-0.5	0.287564	-0.50227	-0.0498726	0.0454529	5	-0.0138535	1.36392e-05	-6.88716e-06	116258	103297	0.0138535	0.000000000000000E+000	0.0138535	0	2	-0.000144435
1	0	0	1	0	0	1	3428.97	-0.5	0.197985	-0.502015	-0.0604745	0.0348511	5	-0.0167985	1.36392e-05	-7.60061e-06	116258	105653	0.0167985	0.000000000000000E+000	0.0167985	0	2	-9.93914e-05
1	0	0	1	0	0	1	3449.98	-0.5	0.108444	-0.502461	-0.0710319	0.0242937	5	-0.0197311	1.36392e-05	-8.04826e-06	116258	107311	0.0197311	0.000000000000000E+000	0.0197311	0	2	-5.4489e-05
1	0	0	1	0	0	1	3471.43	-0.5	0.0186171	-0.502015	-0.0818107	0.0135148	5	-0.0227252	1.36392e-05	-8.23596e-06	116258	108826	0.0227252	0.000000000000000E+000	0.0227252	0	2	-9.34608e-06
1	0	0	1	0	0	1	3476.01	-0.5	0.000265977	-0.502525	-0.0841103	0.0112153	5	-0.023364	1.36392e-05	-8.24156e-06	116258	109219	0.023364	0.000000000000000E+000	0.023364	94.0817	2	-1.3366e-07