File: Input_data/[1] JJ1-53 1st SC total meas_05_CP.mpt
EC-Lab ASCII FILE
Nb header lines : 52

Chronopotentiometry

Run on channel : 1 (SN 31418)
User :
CE vs. WE compliance from -10 V to 10 V
Electrode connection : standard
Ewe ctrl range : min = -10.00 V, max = 10.00 V
Safety Limits :
	Do not start on E overload
Acquisition started on : 01/25/2023 15:21:28
Technique started on : 01/25/2023 15:48:59
Saved on :
	File : [1] JJ1-53 1st SC total meas_05_CP.mpr
	Directory : C:\Users\Potentiostat\Documents\EC-Lab\Data\Supercapacitor until 2021 02\(230125) SC JJ1-53 54 lower CB better viscosity\
	Host : 127.0.0.1
Device : SP-150 (SN 1275)
Address : USB
EC-Lab for windows v11.16 (software)
Internet server v11.16 (firmware)
Command interpretor v11.16 (firmware)
Electrode material : Au/Pd
Initial state :
Electrolyte : NaCl (0.2M)
Comments : Fe(CN)63-/Fe(CN)64- 5.10-3 M
Reference electrode : SCE Saturated Calomel Electrode (0.241 V)
Electrode surface area : 0.001 cm²
Characteristic mass : 0.001 g
Equivalent Weight : 0.000 g/eq.
Density : 0.000 g/cm3
Cycle Definition : Charge/Discharge alternance
Ns                  0                   1
Is                  1.000               -1.000
unit Is             mA                  mA
vs.                 <None>              <None>
ts (h:m:s)          24:00:0.0000        24:00:0.0000
EM (V)              0.800               0.000
dQM                 24.000              24.000
unit dQM            mA.h                mA.h
record              Ewe                 Ewe
dEs (mV)            1.00                1.00
dts (s)             1.0000              1.0000
E range min (V)     -10.000             -10.000
E range max (V)     10.000              10.000
I Range             10 mA               10 mA
Bandwidth           5                   5
goto Ns'            0                   0
nc cycles           0                   5

mode	ox/red	error	control changes	Ns changes	counter inc.	Ns	time/s	control/mA	Ewe/V	I/mA	dQ/C	(Q-Qo)/C	half cycle	Q charge/discharge/mA.h	Energy charge/W.h	Energy discharge/W.h	Capacitance charge/µF	Capacitance discharge/µF	Q discharge/mA.h	Q charge/mA.h	Capacity/mA.h	Efficiency/%	cycle number	P/W
1	1	0	0	0	0	0	1651.07	1	0.120265	0.98936	0.0000000E+000	0.0000000E+000	0	0.000000000000000E+000	0.000000000000000E+000	0.000000000000000E+000	0.000000000000000E+000	0.000000000000000E+000	0.000000000000000E+000	0.000000000000000E+000	0.000000000000000E+000	0	0.000000000000000E+000	0.000118985
1	1	0	0	0	0	0	1654.96	1	0.290295	0.999171	0.00387759	0.00387759	0	0.00107711	2.48872e-07	0.000000000000000E+000	23132.7	0.000000000000000E+000	0.000000000000000E+000	0.00107711	0.00107711	0	0.000000000000000E+000	0.000290054
1	1	0	0	0	0	0	1664.79	1	0.458243	0.999362	0.0137001	0.0137001	0	0.00380559	1.29413e-06	0.000000000000000E+000	40826.1	0.000000000000000E+000	0.000000000000000E+000	0.00380559	0.00380559	0	0.000000000000000E+000	0.000457951
1	1	0	0	0	0	0	1681.54	1	0.626115	0.998725	0.0304403	0.0304403	0	0.00845565	3.85097e-06	0.000000000000000E+000	60464.2	0.000000000000000E+000	0.000000000000000E+000	0.00845565	0.00845565	0	0.000000000000000E+000	0.000625317
1	1	0	0	0	0	0	1711.87	1	0.793567	0.999044	0.0607412	0.0607412	0	0.0168725	9.91423e-06	0.000000000000000E+000	90537.4	0.000000000000000E+000	0.000000000000000E+000	0.0168725	0.0168725	0	0.000000000000000E+000	0.000792808
1	0	0	1	0	0	1	1721.45	-1	0.57996	-1.00184	-0.00788642	0.0545658	1	-0.00219067	1.02931e-05	-1.39397e-06	92242.3	49064.2	0.00219067	0.000000000000000E+000	0.00219067	0	0.000000000000000E+000	-0.000581026
1	0	0	1	0	0	1	1737.7	-1	0.412184	-1.00267	-0.0241677	0.0382844	1	-0.00671326	1.02931e-05	-3.62036e-06	92242.3	73567	0.00671326	0.000000000000000E+000	0.00671326	0	0.000000000000000E+000	-0.000413282
1	0	0	1	0	0	1	1754.97	-1	0.244885	-1.0019	-0.0414761	0.020976	1	-0.0115211	1.02931e-05	-5.20177e-06	92242.3	83652.8	0.0115211	0.000000000000000E+000	0.0115211	0	0.000000000000000E+000	-0.00024535
1	0	0	1	0	0	1	1771.27	-1	0.0776235	-1.00254	-0.0578216	0.00463055	1	-0.0160616	1.02931e-05	-5.93061e-06	92242.3	87202.4	0.0160616	0.000000000000000E+000	0.0160616	0	0.000000000000000E+000	-7.78205e-05
1	1	0	0	0	1	0	1780.47	1	0.151677	0.999108	0.001307	-0.00196371	2	0.000363057	4.54114e-08	-7.55798e-14	14607.1	0.000000000000000E+000	0.000000000000000E+000	0.000363057	0.000363057	0	1	0.000151542
1	1	0	0	0	1	0	1788.3	1	0.319645	0.999426	0.00913419	0.00586347	2	0.00253727	5.79024e-07	-7.55798e-14	35480.1	0.000000000000000E+000	0.000000000000000E+000	0.00253727	0.00253727	0	1	0.000319462
1	1	0	0	0	1	0	1801.13	1	0.48767	0.999426	0.0219501	0.0186794	2	0.00609724	2.03814e-06	-7.55798e-14	51590.2	0.000000000000000E+000	0.000000000000000E+000	0.00609724	0.00609724	0	1	0.00048739
1	1	0	0	0	1	0	1820.79	1	0.655255	0.998662	0.0415971	0.0383264	2	0.0115547	5.194e-06	-7.55798e-14	70140.3	0.000000000000000E+000	0.000000000000000E+000	0.0115547	0.0115547	0	1	0.000654379
1	0	0	1	0	1	1	1848.73	-1	0.718959	-1.00267	-6.47455e-05	0.0661093	3	-1.79849e-05	1.08792e-05	-1.30186e-08	94136	3001.19	1.79849e-05	0.000000000000000E+000	1.79849e-05	0	1	-0.000720876
1	0	0	1	0	1	1	1859.01	-1	0.550056	-1.00311	-0.010366	0.0558081	3	-0.00287943	1.08792e-05	-1.78107e-06	94136	54420.1	0.00287943	0.000000000000000E+000	0.00287943	0	1	-0.000551767
1	0	0	1	0	1	1	1875.77	-1	0.382547	-1.00209	-0.0271636	0.0390105	3	-0.00754544	1.08792e-05	-3.94367e-06	94136	75878.1	0.00754544	0.000000000000000E+000	0.00754544	0	1	-0.000383347
1	0	0	1	0	1	1	1892.78	-1	0.21519	-1.0026	-0.0442177	0.0219564	3	-0.0122827	1.08792e-05	-5.36308e-06	94136	84168.6	0.0122827	0.000000000000000E+000	0.0122827	0	1	-0.00021575
1	0	0	1	0	1	1	1909.18	-1	0.0478148	-1.00203	-0.0606542	0.00551986	3	-0.0168484	1.08792e-05	-5.95825e-06	94136	87559.2	0.0168484	0.000000000000000E+000	0.0168484	0	1	-4.79118e-05
1	1	0	0	0	0	0	1916.38	1	0.181773	0.999362	0.00230293	0.00291637	4	0.000639702	9.19045e-08	-7.81988e-14	19233.9	0.000000000000000E+000	0.000000000000000E+000	0.000639702	0.000639702	0	2	0.000181657
1	1	0	0	0	0	0	1925.1	1	0.349778	0.999745	0.0110146	0.0116281	4	0.00305962	7.55404e-07	-7.81988e-14	38280	0.000000000000000E+000	0.000000000000000E+000	0.00305962	0.00305962	0	2	0.000349689
1	1	0	0	0	0	0	1938.91	1	0.517918	0.999044	0.0248142	0.0254276	4	0.00689283	2.44227e-06	-7.81988e-14	54431.6	0.000000000000000E+000	0.000000000000000E+000	0.00689283	0.00689283	0	2	0.000517423
1	1	0	0	0	0	0	1960.14	1	0.684969	0.99949	0.0460166	0.04663	4	0.0127824	6.02526e-06	-7.81988e-14	73871.2	0.000000000000000E+000	0.000000000000000E+000	0.0127824	0.0127824	0	2	0.000684619
1	0	0	1	0	0	1	1983.8	-1	0.688291	-1.00216	-0.000856351	0.0685612	5	-0.000237874	1.07559e-05	-1.66932e-07	93264.1	16391	0.000237874	0.000000000000000E+000	0.000237874	0	2	-0.000689775
1	0	0	1	0	0	1	1995.82	-1	0.521412	-1.00254	-0.012905	0.0565126	5	-0.00358472	1.07559e-05	-2.15662e-06	93264.1	58893.5	0.00358472	0.000000000000000E+000	0.00358472	0	2	-0.000522736
1	0	0	1	0	0	1	2012.85	-1	0.354533	-1.00241	-0.0299715	0.0394461	5	-0.00832541	1.07559e-05	-4.22404e-06	93264.1	77645.6	0.00832541	0.000000000000000E+000	0.00832541	0	2	-0.000355388
1	0	0	1	0	0	1	2029.59	-1	0.187349	-1.00305	-0.0467541	0.0226634	5	-0.0129873	1.07559e-05	-5.49061e-06	93264.1	84517.6	0.0129873	0.000000000000000E+000	0.0129873	0	2	-0.000187919
1	0	0	1	0	0	1	2046.16	-1	0.0198966	-1.00222	-0.063357	0.00606054	5	-0.0175992	1.07559e-05	-5.9624e-06	93264.1	87917.7	0.0175992	0.000000000000000E+000	0.0175992	0	2	-1.99407e-05
1	1	0	0	0	1	0	2051.61	1	0.209576	1.00006	0.00338298	0.0073712	6	0.000939717	1.51006e-07	-7.48536e-14	22818.1	0.000000000000000E+000	0.000000000000000E+000	0.000939717	0.000939717	0	3	0.000209589
1	1	0	0	0	1	0	2061.15	1	0.378002	0.99949	0.0129117	0.0168999	6	0.00358658	9.48893e-07	-7.48536e-14	40771.4	0.000000000000000E+000	0.000000000000000E+000	0.00358658	0.00358658	0	3	0.000377809
1	1	0	0	0	1	0	2075.96	1	0.546428	0.999554	0.0277051	0.0316933	6	0.00769586	2.87436e-06	-7.48536e-14	57110.9	0.000000000000000E+000	0.000000000000000E+000	0.00769586	0.00769586	0	3	0.000546184
1	1	0	0	0	1	0	2098.84	1	0.713345	0.998725	0.0505697	0.0545579	6	0.0140471	6.91984e-06	-7.48536e-14	77557.5	0.000000000000000E+000	0.000000000000000E+000	0.0140471	0.0140471	0	3	0.000712436
1	0	0	1	0	1	1	2118.81	-1	0.660029	-1.00196	-0.00220056	0.0701144	7	-0.000611268	1.06673e-05	-4.18109e-07	92514.6	27498.2	0.000611268	0.000000000000000E+000	0.000611268	0	3	-0.000661326
1	0	0	1	0	1	1	2132.22	-1	0.492043	-1.00235	-0.015644	0.0566709	7	-0.00434557	1.06673e-05	-2.53968e-06	92514.6	63077.6	0.00434557	0.000000000000000E+000	0.00434557	0	3	-0.000493197
1	0	0	1	0	1	1	2149.57	-1	0.324037	-1.00273	-0.0330294	0.0392856	7	-0.00917484	1.06673e-05	-4.50521e-06	92514.6	79394.1	0.00917484	0.000000000000000E+000	0.00917484	0	3	-0.000324921
1	0	0	1	0	1	1	2166.08	-1	0.156833	-1.00216	-0.049577	0.022738	7	-0.0137714	1.06673e-05	-5.61177e-06	92514.6	85005.3	0.0137714	0.000000000000000E+000	0.0137714	0	3	-0.000157171
1	1	0	0	0	0	0	2181.78	1	0.0722384	0.998279	4.39083e-06	0.00701277	8	1.21964e-06	8.41498e-11	-7.52685e-14	424.283	0.000000000000000E+000	0.000000000000000E+000	1.21964e-06	1.21964e-06	0	4	7.21141e-05
1	1	0	0	0	0	0	2186.56	1	0.241161	0.999554	0.00478613	0.0117945	8	0.00132948	2.39372e-07	-7.52685e-14	26696.1	0.000000000000000E+000	0.000000000000000E+000	0.00132948	0.00132948	0	4	0.000241053
1	1	0	0	0	0	0	2197	1	0.409816	0.999171	0.0152169	0.0222253	8	0.00422692	1.20306e-06	-7.52685e-14	43734.7	0.000000000000000E+000	0.000000000000000E+000	0.00422692	0.00422692	0	4	0.000409476
1	1	0	0	0	0	0	2212.91	1	0.577516	0.999171	0.031114	0.0381223	8	0.00864277	3.4115e-06	-7.52685e-14	60340.8	0.000000000000000E+000	0.000000000000000E+000	0.00864277	0.00864277	0	4	0.000577037
1	1	0	0	0	0	0	2237.89	1	0.744586	0.999108	0.0560661	0.0630745	8	0.0155739	8.0438e-06	-7.52685e-14	82123.2	0.000000000000000E+000	0.000000000000000E+000	0.0155739	0.0155739	0	4	0.000743922
1	0	0	1	0	0	1	2253.83	-1	0.628884	-1.00177	-0.00406898	0.0708745	9	-0.00113027	1.05953e-05	-7.51787e-07	92068.6	36469.4	0.00113027	0.000000000000000E+000	0.00113027	0	4	-0.000629999
1	0	0	1	0	0	1	2268.39	-1	0.461203	-1.00298	-0.0186635	0.05628	9	-0.0051843	1.05953e-05	-2.93631e-06	92068.6	66833.4	0.0051843	0.000000000000000E+000	0.0051843	0	4	-0.000462579
1	0	0	1	0	0	1	2285.68	-1	0.293655	-1.00228	-0.0359937	0.0389498	9	-0.00999826	1.05953e-05	-4.75149e-06	92068.6	80558.8	0.00999826	0.000000000000000E+000	0.00999826	0	4	-0.000294326
1	0	0	1	0	0	1	2302.16	-1	0.125554	-1.00241	-0.0525059	0.0224377	9	-0.014585	1.05953e-05	-5.71177e-06	92068.6	85388.9	0.014585	0.000000000000000E+000	0.014585	0	4	-0.000125857
1	1	0	0	0	1	0	2315.01	1	0.10388	0.999171	0.000204415	0.00996679	10	5.6782e-05	5.32153e-09	-7.57872e-14	4839.25	0.000000000000000E+000	0.000000000000000E+000	5.6782e-05	5.6782e-05	0	5	0.000103794
1	1	0	0	0	1	0	2321.14	1	0.272421	0.999299	0.00633378	0.0160962	10	0.00175938	3.50398e-07	-7.57872e-14	30048.9	0.000000000000000E+000	0.000000000000000E+000	0.00175938	0.00175938	0	5	0.00027223
1	1	0	0	0	1	0	2332.4	1	0.440331	0.998279	0.0175852	0.0273476	10	0.00488479	1.48475e-06	-7.57872e-14	46436.7	0.000000000000000E+000	0.000000000000000E+000	0.00488479	0.00488479	0	5	0.000439573
1	1	0	0	0	1	0	2349.52	1	0.607611	0.99847	0.0346879	0.0444502	10	0.00963551	4.00493e-06	-7.57872e-14	63534	0.000000000000000E+000	0.000000000000000E+000	0.00963551	0.00963551	0	5	0.000606682
1	1	0	0	0	1	0	2377.04	1	0.77598	0.998407	0.062184	0.0719464	10	0.0172733	9.34737e-06	-7.57872e-14	87050.8	0.000000000000000E+000	0.000000000000000E+000	0.0172733	0.0172733	0	5	0.000774743
1	0	0	1	0	1	1	2388.81	-1	0.596516	-1.0033	-0.00634437	0.071033	11	-0.00176233	1.05371e-05	-1.13801e-06	91614.3	44076.5	0.00176233	0.000000000000000E+000	0.00176233	0	5	-0.000598486
1	0	0	1	0	1	1	2404.33	-1	0.428931	-1.00247	-0.0219062	0.0554711	11	-0.00608507	1.05371e-05	-3.33363e-06	91614.3	70319.2	0.00608507	0.000000000000000E+000	0.00608507	0	5	-0.000429992
1	0	0	1	0	1	1	2421.42	-1	0.261842	-1.00292	-0.0390326	0.0383448	11	-0.0108424	1.05371e-05	-4.9777e-06	91614.3	81553.2	0.0108424	0.000000000000000E+000	0.0108424	0	5	-0.000262606
1	0	0	1	0	1	1	2437.77	-1	0.0947716	-1.00216	-0.0554134	0.021964	11	-0.0153926	1.05371e-05	-5.78636e-06	91614.3	85821.1	0.0153926	0.000000000000000E+000	0.0153926	0	5	-9.49759e-05
1	0	0	1	0	1	1	2447.38	-1	0.000208689	-1.00107	-0.0650528	0.0123246	11	-0.0180702	1.05371e-05	-5.91091e-06	91614.3	87879.7	0.0180702	0.000000000000000E+000	0.0180702	96.2106	5	-2.08913e-07