File: Input_data/[1] JJ1-53 1st SC total meas_04_CP.mpt
EC-Lab ASCII FILE
Nb header lines : 52

Chronopotentiometry

Run on channel : 1 (SN 31418)
User :
CE vs. WE compliance from -10 V to 10 V
Electrode connection : standard
Ewe ctrl range : min = -10.00 V, max = 10.00 V
Safety Limits :
	Do not start on E overload
Acquisition started on : 01/25/2023 15:21:28
Technique started on : 01/25/2023 15:44:30
Saved on :
	File : [1] JJ1-53 1st SC total meas_04_CP.mpr
	Directory : C:\Users\Potentiostat\Documents\EC-Lab\Data\Supercapacitor until 2021 02\(230125) SC JJ1-53 54 lower CB better viscosity\
	Host : 127.0.0.1
Device : SP-150 (SN 1275)
Address : USB
EC-Lab for windows v11.16 (software)
Internet server v11.16 (firmware)
Command interpretor v11.16 (firmware)
Electrode material : Au/Pd
Initial state :
Electrolyte : NaCl (0.2M)
Comments : Fe(CN)63-/Fe(CN)64- 5.10-3 M
Reference electrode : SCE Saturated Calomel Electrode (0.241 V)
Electrode surface area : 0.001 cm²
Characteristic mass : 0.001 g
Equivalent Weight : 0.000 g/eq.
Density : 0.000 g/cm3
Cycle Definition : Charge/Discharge alternance
Ns                  0                   1
Is                  2.000               -2.000
unit Is             mA                  mA
vs.                 <None>              <None>
ts (h:m:s)          24:00:0.0000        24:00:0.0000
EM (V)              0.800               0.000
dQM                 48.000              48.000
unit dQM            mA.h                mA.h
record              Ewe                 Ewe
dEs (mV)            1.00                1.00
dts (s)             1.0000              1.0000
E range min (V)     -10.000             -10.000
E range max (V)     10.000              10.000
I Range             10 mA               10 mA
Bandwidth           5                   5
goto Ns'            0                   0
nc cycles           0                   5

mode	ox/red	error	control changes	Ns changes	counter inc.	Ns	time/s	control/mA	Ewe/V	I/mA	dQ/C	(Q-Qo)/C	half cycle	Q charge/discharge/mA.h	Energy charge/W.h	Energy discharge/W.h	Capacitance charge/µF	Capacitance discharge/µF	Q discharge/mA.h	Q charge/mA.h	Capacity/mA.h	Efficiency/%	cycle number	P/W
1	1	0	0	0	0	0	1382.48	2	0.280987	1.97779	0.0000000E+000	0.0000000E+000	0	0.000000000000000E+000	0.000000000000000E+000	0.000000000000000E+000	0.000000000000000E+000	0.000000000000000E+000	0.000000000000000E+000	0.000000000000000E+000	0.000000000000000E+000	0	0.000000000000000E+000	0.000555734
1	1	0	0	0	0	0	1383.73	2	0.438975	1.99945	0.00249569	0.00249569	0	0.000693247	2.70077e-07	0.000000000000000E+000	16182.8	0.000000000000000E+000	0.000000000000000E+000	0.000693247	0.000693247	0	0.000000000000000E+000	0.00087771
1	1	0	0	0	0	0	1387.73	2	0.590425	1.99939	0.0104902	0.0104902	0	0.00291395	1.43568e-06	0.000000000000000E+000	34318.9	0.000000000000000E+000	0.000000000000000E+000	0.00291395	0.00291395	0	0.000000000000000E+000	0.00118049
1	1	0	0	0	0	0	1395.73	2	0.741168	1.99945	0.026475	0.026475	0	0.00735418	4.43251e-06	0.000000000000000E+000	58007	0.000000000000000E+000	0.000000000000000E+000	0.00735418	0.00735418	0	0.000000000000000E+000	0.00148193
1	0	0	1	0	0	1	1401.54	-2	0.585498	-2.0025	-0.00155596	0.0349948	1	-0.00043221	6.59467e-06	-2.63785e-07	70959.4	16287.7	0.00043221	0.000000000000000E+000	0.00043221	0	0.000000000000000E+000	-0.00117246
1	0	0	1	0	0	1	1405.97	-2	0.434545	-2.00212	-0.0104164	0.0261343	1	-0.00289346	6.59467e-06	-1.50262e-06	70959.4	42260.3	0.00289346	0.000000000000000E+000	0.00289346	0	0.000000000000000E+000	-0.00087001
1	0	0	1	0	0	1	1411.58	-2	0.284108	-2.00205	-0.0216473	0.0149034	1	-0.00601314	6.59467e-06	-2.61805e-06	70959.4	54538.1	0.00601314	0.000000000000000E+000	0.00601314	0	0.000000000000000E+000	-0.000568799
1	0	0	1	0	0	1	1417.7	-2	0.13262	-2.00269	-0.033898	0.00265274	1	-0.0094161	6.59467e-06	-3.32288e-06	70959.4	61811.6	0.0094161	0.000000000000000E+000	0.0094161	0	0.000000000000000E+000	-0.000265596
1	1	0	0	0	1	0	1423.25	2	0.146044	1.99901	1.11857e-05	-0.00844067	2	3.10725e-06	4.31192e-10	-2.69557e-13	490.735	0.000000000000000E+000	0.000000000000000E+000	3.10725e-06	3.10725e-06	0	1	0.000291943
1	1	0	0	0	1	0	1424.7	2	0.30011	1.99952	0.00291281	-0.00553905	2	0.000809113	2.00523e-07	-2.69557e-13	16468	0.000000000000000E+000	0.000000000000000E+000	0.000809113	0.000809113	0	1	0.000600075
1	1	0	0	0	1	0	1428.22	2	0.45112	1.99831	0.00995116	0.0014993	2	0.00276421	9.48228e-07	-2.69557e-13	30349.3	0.000000000000000E+000	0.000000000000000E+000	0.00276421	0.00276421	0	1	0.000901476
1	1	0	0	0	1	0	1433.8	2	0.602264	1.99894	0.0210997	0.0126479	2	0.00586104	2.59829e-06	-2.69557e-13	44046.6	0.000000000000000E+000	0.000000000000000E+000	0.00586104	0.00586104	0	1	0.00120389
1	1	0	0	0	1	0	1442.74	2	0.753561	1.99894	0.0389842	0.0305323	2	0.0108289	6.00083e-06	-2.69557e-13	61847.4	0.000000000000000E+000	0.000000000000000E+000	0.0108289	0.0108289	0	1	0.00150633
1	0	0	1	0	1	1	1447.75	-2	0.572074	-2.00212	-0.00208362	0.0363779	3	-0.000578784	7.71461e-06	-3.4819e-07	69325.4	19194.6	0.000578784	0.000000000000000E+000	0.000578784	0	1	-0.00114536
1	0	0	1	0	1	1	1452.34	-2	0.421312	-2.00244	-0.0112706	0.0271909	3	-0.00313073	7.71461e-06	-1.60062e-06	69325.4	43463	0.00313073	0.000000000000000E+000	0.00313073	0	1	-0.00084365
1	0	0	1	0	1	1	1458.05	-2	0.270588	-2.00218	-0.0227062	0.0157553	3	-0.00630728	7.71461e-06	-2.69367e-06	69325.4	55375.7	0.00630728	0.000000000000000E+000	0.00630728	0	1	-0.000541766
1	0	0	1	0	1	1	1464.13	-2	0.120379	-2.00225	-0.0348784	0.00358308	3	-0.00968845	7.71461e-06	-3.35143e-06	69325.4	62255.4	0.00968845	0.000000000000000E+000	0.00968845	0	1	-0.000241029
1	1	0	0	0	0	0	1469.15	2	0.158285	1.99933	3.35755e-05	-0.0063875	4	9.32642e-06	1.38692e-09	-2.867e-13	953.748	0.000000000000000E+000	0.000000000000000E+000	9.32642e-06	9.32642e-06	0	2	0.000316462
1	1	0	0	0	0	0	1470.77	2	0.311128	1.99933	0.00328385	-0.00313723	4	0.000912181	2.32549e-07	-2.867e-13	17462.1	0.000000000000000E+000	0.000000000000000E+000	0.000912181	0.000912181	0	2	0.000622046
1	1	0	0	0	0	0	1474.45	2	0.462807	1.99856	0.0106285	0.00420745	4	0.00295237	1.03602e-06	-2.867e-13	31284.8	0.000000000000000E+000	0.000000000000000E+000	0.00295237	0.00295237	0	2	0.000924948
1	1	0	0	0	0	0	1480.22	2	0.613798	1.99831	0.0221619	0.0157408	4	0.00615607	2.78002e-06	-2.867e-13	45161.4	0.000000000000000E+000	0.000000000000000E+000	0.00615607	0.00615607	0	2	0.00122656
1	1	0	0	0	0	0	1489.33	2	0.763777	1.99983	0.0403814	0.0339603	4	0.0112171	6.29997e-06	-2.867e-13	63026.5	0.000000000000000E+000	0.000000000000000E+000	0.0112171	0.0112171	0	2	0.00152743
1	0	0	1	0	0	1	1493.66	-2	0.562869	-2.00212	-0.00248837	0.0376423	5	-0.000691215	7.64171e-06	-4.11658e-07	68813.5	21074.1	0.000691215	0.000000000000000E+000	0.000691215	0	2	-0.00112693
1	0	0	1	0	0	1	1498.35	-2	0.412088	-2.00186	-0.0118719	0.0282587	5	-0.00329775	7.64171e-06	-1.66802e-06	68813.5	44156.6	0.00329775	0.000000000000000E+000	0.00329775	0	2	-0.000824944
1	0	0	1	0	0	1	1504.11	-2	0.261288	-2.00161	-0.0234061	0.0167245	5	-0.00650171	7.64171e-06	-2.74127e-06	68813.5	55774.1	0.00650171	0.000000000000000E+000	0.00650171	0	2	-0.000522996
1	0	0	1	0	0	1	1510.2	-2	0.11106	-2.00174	-0.0355964	0.00453427	5	-0.00988788	7.64171e-06	-3.36922e-06	68813.5	62462.1	0.00988788	0.000000000000000E+000	0.00988788	0	2	-0.000222314
1	1	0	0	0	1	0	1514.85	2	0.169379	1.99952	7.59575e-05	-0.00461875	6	2.10994e-05	3.32893e-09	-2.85715e-13	1643.33	0.000000000000000E+000	0.000000000000000E+000	2.10994e-05	2.10994e-05	0	3	0.000338677
1	1	0	0	0	1	0	1516.65	2	0.322108	1.99913	0.00367207	-0.00102264	6	0.00102002	2.67062e-07	-2.85715e-13	18456.7	0.000000000000000E+000	0.000000000000000E+000	0.00102002	0.00102002	0	3	0.000643938
1	1	0	0	0	1	0	1520.44	2	0.473424	1.99939	0.0112582	0.00656348	6	0.00312727	1.11925e-06	-2.85715e-13	32141.3	0.000000000000000E+000	0.000000000000000E+000	0.00312727	0.00312727	0	3	0.000946559
1	1	0	0	0	1	0	1526.39	2	0.624377	1.99862	0.023157	0.0184623	6	0.00643249	2.95349e-06	-2.85715e-13	46200.7	0.000000000000000E+000	0.000000000000000E+000	0.00643249	0.00643249	0	3	0.0012479
1	1	0	0	0	1	0	1535.82	2	0.775063	1.99869	0.0420072	0.0373125	6	0.0116687	6.65304e-06	-2.85715e-13	64437	0.000000000000000E+000	0.000000000000000E+000	0.0116687	0.0116687	0	3	0.00154911
1	0	0	1	0	1	1	1539.5	-2	0.5504	-2.00218	-0.00307461	0.0385317	7	-0.000854058	7.59317e-06	-5.01986e-07	68427.8	23595.2	0.000854058	0.000000000000000E+000	0.000854058	0	3	-0.001102
1	0	0	1	0	1	1	1544.37	-2	0.39874	-2.00205	-0.0128061	0.0288002	7	-0.00355726	7.59317e-06	-1.77148e-06	68427.8	45417.2	0.00355726	0.000000000000000E+000	0.00355726	0	3	-0.000798299
1	0	0	1	0	1	1	1550.18	-2	0.247959	-2.00154	-0.0244435	0.0171628	7	-0.00678986	7.59317e-06	-2.81136e-06	68427.8	56484.4	0.00678986	0.000000000000000E+000	0.00678986	0	3	-0.000496301
1	0	0	1	0	1	1	1556.29	-2	0.097235	-2.0025	-0.0366699	0.00493641	7	-0.0101861	7.59317e-06	-3.39549e-06	68427.8	62847.7	0.0101861	0.000000000000000E+000	0.0101861	0	3	-0.000194713
1	1	0	0	0	0	0	1560.41	2	0.182785	1.99856	0.000164726	-0.00299241	8	4.57572e-05	7.70267e-09	-2.93638e-13	2736.74	0.000000000000000E+000	0.000000000000000E+000	4.57572e-05	4.57572e-05	0	4	0.000365306
1	1	0	0	0	0	0	1562.42	2	0.33538	1.9985	0.0041783	0.00102116	8	0.00116064	3.13751e-07	-2.93638e-13	19635.9	0.000000000000000E+000	0.000000000000000E+000	0.00116064	0.00116064	0	4	0.000670256
1	1	0	0	0	0	0	1566.38	2	0.486906	1.99894	0.0120911	0.00893394	8	0.00335863	1.23188e-06	-2.93638e-13	33188.5	0.000000000000000E+000	0.000000000000000E+000	0.00335863	0.00335863	0	4	0.000973297
1	1	0	0	0	0	0	1572.58	2	0.638126	1.99882	0.0244852	0.0213281	8	0.00680145	3.18936e-06	-2.93638e-13	47494.7	0.000000000000000E+000	0.000000000000000E+000	0.00680145	0.00680145	0	4	0.0012755
1	1	0	0	0	0	0	1582.37	2	0.788278	1.99977	0.0440551	0.040898	8	0.0122375	7.10435e-06	-2.93638e-13	66179.9	0.000000000000000E+000	0.000000000000000E+000	0.0122375	0.0122375	0	4	0.00157637
1	0	0	1	0	0	1	1585.24	-2	0.537243	-2.00231	-0.00373003	0.0391843	9	-0.00103612	7.54945e-06	-6.00523e-07	68037.9	26072.7	0.00103612	0.000000000000000E+000	0.00103612	0	4	-0.00107573
1	0	0	1	0	0	1	1590.2	-2	0.386213	-2.00097	-0.0136745	0.0292398	9	-0.00379848	7.54945e-06	-1.86397e-06	68037.9	46497.4	0.00379848	0.000000000000000E+000	0.00379848	0	4	-0.000772802
1	0	0	1	0	0	1	1596.05	-2	0.235776	-2.0018	-0.0253698	0.0175446	9	-0.00704716	7.54945e-06	-2.86928e-06	68037.9	57071	0.00704716	0.000000000000000E+000	0.00704716	0	4	-0.000471976
1	0	0	1	0	0	1	1602.17	-2	0.0845553	-2.00218	-0.0376323	0.00528199	9	-0.0104534	7.54945e-06	-3.41293e-06	68037.9	63167.9	0.0104534	0.000000000000000E+000	0.0104534	0	4	-0.000169295
1	1	0	0	0	1	0	1605.84	2	0.195025	1.99875	0.000288676	-0.00148329	10	8.01878e-05	1.424e-08	-2.82539e-13	4003.2	0.000000000000000E+000	0.000000000000000E+000	8.01878e-05	8.01878e-05	0	5	0.000389807
1	1	0	0	0	1	0	1608.02	2	0.347009	1.99894	0.00464174	0.00286977	10	0.00128937	3.58008e-07	-2.82539e-13	20713.1	0.000000000000000E+000	0.000000000000000E+000	0.00128937	0.00128937	0	5	0.000693652
1	1	0	0	0	1	0	1612.1	2	0.498134	1.99939	0.0128117	0.0110398	10	0.00355881	1.33154e-06	-2.82539e-13	34144.3	0.000000000000000E+000	0.000000000000000E+000	0.00355881	0.00355881	0	5	0.000995964
1	1	0	0	0	1	0	1618.49	2	0.649183	1.99933	0.0255851	0.0238131	10	0.00710697	3.38823e-06	-2.82539e-13	48615.8	0.000000000000000E+000	0.000000000000000E+000	0.00710697	0.00710697	0	5	0.00129793
1	1	0	0	0	1	0	1628.61	2	0.799334	1.99907	0.0458021	0.0440301	10	0.0127228	7.49508e-06	-2.82539e-13	67712.3	0.000000000000000E+000	0.000000000000000E+000	0.0127228	0.0127228	0	5	0.00159792
1	0	0	1	0	1	1	1630.84	-2	0.525843	-2.00225	-0.00434898	0.0398087	11	-0.00120805	7.52342e-06	-6.91681e-07	67847.2	28053.5	0.00120805	0.000000000000000E+000	0.00120805	0	5	-0.00105287
1	0	0	1	0	1	1	1635.92	-2	0.374794	-2.0018	-0.0145053	0.0296524	11	-0.00402925	7.52342e-06	-1.95074e-06	67847.2	47391.6	0.00402925	0.000000000000000E+000	0.00402925	0	5	-0.000750262
1	0	0	1	0	1	1	1641.78	-2	0.224681	-2.00142	-0.0262432	0.0179145	11	-0.00728977	7.52342e-06	-2.92313e-06	67847.2	57527.3	0.00728977	0.000000000000000E+000	0.00728977	0	5	-0.000449681
1	0	0	1	0	1	1	1647.87	-2	0.0741098	-2.00199	-0.0384438	0.00571384	11	-0.0106788	7.52342e-06	-3.42753e-06	67847.2	63359.5	0.0106788	0.000000000000000E+000	0.0106788	0	5	-0.000148367
1	0	0	1	0	1	1	1650.97	-2	0.000189593	-2.0011	-0.0446451	-0.000487393	11	-0.0124014	7.52342e-06	-3.48989e-06	67847.2	65589.2	0.0124014	0.000000000000000E+000	0.0124014	97.2032	5	-3.79394e-07